Absorbance:209, 
188.96, 0
189.424, 0
189.887, 0
190.351, -0.25
190.815, 0
191.279, -1.26
191.742, 0
192.206, 0
192.669, 0
193.133, -0.67
193.596, 0.13
194.06, -0.46
194.523, 0
194.987, -0.27
195.45, 1.31
195.913, 0
196.376, 0.21
196.84, 0
197.303, -0.87
197.766, 0
198.229, -0.56
198.692, 0.08
199.155, 0.1
199.618, 0.08
200.081, 0.06
200.543, 0.02
201.006, 0.05
201.469, 0.02
201.932, 0.06
202.394, 0.01
202.857, 0.08
203.32, 0.01
203.782, 0.03
204.245, 0.08
204.707, 0.04
205.169, 0.04
205.632, 0.09
206.094, 0.06
206.556, 0.07
207.019, 0.05
207.481, 0.07
207.943, 0.09
208.405, 0.07
208.867, 0.12
209.329, 0.06
209.791, 0.13
210.253, 0.12
210.715, 0.16
211.177, 0.17
211.639, 0.15
212.1, 0.2
212.562, 0.24
213.024, 0.24
213.485, 0.32
213.947, 0.36
214.408, 0.41
214.87, 0.47
215.331, 0.55
215.793, 0.6
216.254, 0.68
216.715, 0.71
217.177, 0.78
217.638, 0.85
218.099, 0.96
218.56, 0.99
219.021, 1.11
219.482, 1.16
219.944, 1.18
220.404, 1.24
220.865, 1.34
221.326, 1.37
221.787, 1.39
222.248, 1.5
222.709, 1.55
223.169, 1.54
223.63, 1.58
224.091, 1.65
224.551, 1.65
225.012, 1.69
225.472, 1.7
225.933, 1.67
226.393, 1.72
226.854, 1.7
227.314, 1.72
227.774, 1.71
228.234, 1.75
228.695, 1.74
229.155, 1.73
229.615, 1.76
230.075, 1.73
230.535, 1.71
230.995, 1.75
231.455, 1.73
231.915, 1.77
232.375, 1.74
232.834, 1.73
233.294, 1.76
233.754, 1.75
234.214, 1.77
234.673, 1.76
235.133, 1.78
235.592, 1.75
236.052, 1.74
236.511, 1.74
236.971, 1.77
237.43, 1.82
237.889, 1.76
238.349, 1.77
238.808, 1.79
239.267, 1.78
239.726, 1.8
240.185, 1.74
240.644, 1.75
241.103, 1.75
241.562, 1.76
242.021, 1.79
242.48, 1.74
242.939, 1.76
243.398, 1.79
243.857, 1.83
244.315, 1.79
244.774, 1.83
245.233, 1.79
245.691, 1.81
246.15, 1.78
246.608, 1.91
247.067, 1.84
247.525, 1.81
247.983, 1.76
248.442, 1.77
248.9, 1.81
249.358, 1.78
249.816, 1.8
250.274, 1.84
250.733, 1.8
251.191, 1.82
251.649, 1.83
252.107, 1.79
252.564, 1.73
253.022, 1.8
253.48, 1.77
253.938, 1.81
254.396, 1.76
254.853, 1.78
255.311, 1.72
255.769, 1.7
256.226, 1.64
256.684, 1.63
257.141, 1.59
257.599, 1.59
258.056, 1.5
258.513, 1.47
258.971, 1.46
259.428, 1.44
259.885, 1.4
260.342, 1.36
260.799, 1.31
261.256, 1.28
261.714, 1.29
262.171, 1.25
262.627, 1.24
263.084, 1.22
263.541, 1.21
263.998, 1.2
264.455, 1.18
264.912, 1.19
265.368, 1.18
265.825, 1.2
266.281, 1.2
266.738, 1.21
267.194, 1.22
267.651, 1.21
268.107, 1.23
268.564, 1.23
269.02, 1.25
269.476, 1.25
269.933, 1.26
270.389, 1.27
270.845, 1.27
271.301, 1.29
271.757, 1.3
272.213, 1.31
272.669, 1.33
273.125, 1.33
273.581, 1.36
274.037, 1.35
274.492, 1.37
274.948, 1.35
275.404, 1.34
275.86, 1.36
276.315, 1.38
276.771, 1.38
277.226, 1.37
277.682, 1.38
278.137, 1.36
278.593, 1.37
279.048, 1.36
279.503, 1.35
279.958, 1.35
280.414, 1.37
280.869, 1.35
281.324, 1.33
281.779, 1.36
282.234, 1.37
282.689, 1.34
283.144, 1.34
283.599, 1.33
284.054, 1.33
284.508, 1.32
284.963, 1.31
285.418, 1.3
285.873, 1.28
286.327, 1.27
286.782, 1.3
287.236, 1.27
287.691, 1.26
288.145, 1.25
288.6, 1.24
289.054, 1.26
289.508, 1.25
289.963, 1.23
290.417, 1.22
290.871, 1.23
291.325, 1.22
291.779, 1.22
292.233, 1.2
292.687, 1.23
293.141, 1.2
293.595, 1.22
294.049, 1.21
294.503, 1.21
294.957, 1.2
295.41, 1.2
295.864, 1.2
296.318, 1.18
296.771, 1.18
297.225, 1.17
297.678, 1.16
298.132, 1.15
298.585, 1.14
299.039, 1.14
299.492, 1.1
299.945, 1.09
300.398, 1.06
300.852, 1.06
301.305, 1.03
301.758, 0.99
302.211, 0.97
302.664, 0.94
303.117, 0.92
303.57, 0.9
304.023, 0.88
304.476, 0.85
304.928, 0.82
305.381, 0.8
305.834, 0.76
306.286, 0.75
306.739, 0.72
307.192, 0.7
307.644, 0.67
308.097, 0.65
308.549, 0.63
309.001, 0.61
309.454, 0.6
309.906, 0.58
310.358, 0.55
310.81, 0.54
311.263, 0.53
311.715, 0.51
312.167, 0.5
312.619, 0.48
313.071, 0.48
313.523, 0.47
313.975, 0.46
314.426, 0.45
314.878, 0.45
315.33, 0.44
315.782, 0.46
316.233, 0.46
316.685, 0.46
317.136, 0.47
317.588, 0.46
318.039, 0.44
318.491, 0.39
318.942, 0.36
319.393, 0.34
319.845, 0.33
320.296, 0.33
320.747, 0.33
321.198, 0.34
321.649, 0.34
322.101, 0.37
322.552, 0.37
323.003, 0.39
323.453, 0.4
323.904, 0.42
324.355, 0.42
324.806, 0.43
325.257, 0.43
325.707, 0.44
326.158, 0.45
326.609, 0.46
327.059, 0.46
327.51, 0.49
327.96, 0.48
328.411, 0.49
328.861, 0.5
329.311, 0.52
329.762, 0.52
330.212, 0.53
330.662, 0.55
331.112, 0.55
331.562, 0.56
332.012, 0.55
332.462, 0.58
332.912, 0.57
333.362, 0.58
333.812, 0.59
334.262, 0.6
334.712, 0.59
335.161, 0.61
335.611, 0.6
336.061, 0.61
336.51, 0.61
336.96, 0.62
337.409, 0.63
337.859, 0.63
338.308, 0.64
338.758, 0.65
339.207, 0.66
339.656, 0.66
340.105, 0.68
340.555, 0.68
341.004, 0.7
341.453, 0.72
341.902, 0.74
342.351, 0.76
342.8, 0.77
343.249, 0.79
343.698, 0.8
344.146, 0.82
344.595, 0.84
345.044, 0.87
345.493, 0.87
345.941, 0.88
346.39, 0.9
346.838, 0.93
347.287, 0.93
347.735, 0.94
348.184, 0.94
348.632, 0.95
349.08, 0.94
349.529, 0.94
349.977, 0.91
350.425, 0.93
350.873, 0.91
351.321, 0.9
351.769, 0.88
352.217, 0.85
352.665, 0.83
353.113, 0.81
353.561, 0.79
354.009, 0.76
354.456, 0.74
354.904, 0.72
355.352, 0.69
355.799, 0.67
356.247, 0.64
356.694, 0.61
357.142, 0.59
357.589, 0.57
358.037, 0.55
358.484, 0.52
358.931, 0.51
359.379, 0.49
359.826, 0.47
360.273, 0.45
360.72, 0.44
361.167, 0.41
361.614, 0.4
362.061, 0.39
362.508, 0.37
362.955, 0.36
363.402, 0.36
363.848, 0.34
364.295, 0.33
364.742, 0.32
365.188, 0.31
365.635, 0.3
366.082, 0.28
366.528, 0.28
366.975, 0.27
367.421, 0.26
367.867, 0.26
368.314, 0.25
368.76, 0.25
369.206, 0.24
369.652, 0.24
370.098, 0.23
370.545, 0.23
370.991, 0.23
371.437, 0.22
371.882, 0.22
372.328, 0.21
372.774, 0.22
373.22, 0.21
373.666, 0.21
374.111, 0.21
374.557, 0.2
375.003, 0.2
375.448, 0.19
375.894, 0.2
376.339, 0.2
376.785, 0.2
377.23, 0.21
377.675, 0.2
378.121, 0.2
378.566, 0.2
379.011, 0.2
379.456, 0.2
379.901, 0.2
380.346, 0.19
380.791, 0.19
381.236, 0.2
381.681, 0.2
382.126, 0.2
382.571, 0.2
383.016, 0.2
383.461, 0.2
383.905, 0.19
384.35, 0.2
384.794, 0.2
385.239, 0.2
385.683, 0.19
386.128, 0.2
386.572, 0.2
387.017, 0.2
387.461, 0.2
387.905, 0.2
388.349, 0.2
388.794, 0.2
389.238, 0.19
389.682, 0.2
390.126, 0.2
390.57, 0.19
391.014, 0.19
391.457, 0.19
391.901, 0.19
392.345, 0.19
392.789, 0.18
393.233, 0.19
393.676, 0.18
394.12, 0.19
394.563, 0.19
395.007, 0.17
395.45, 0.17
395.894, 0.18
396.337, 0.18
396.78, 0.17
397.224, 0.17
397.667, 0.17
398.11, 0.17
398.553, 0.17
398.996, 0.17
399.439, 0.16
399.882, 0.16
400.325, 0.16
400.768, 0.16
401.211, 0.17
401.654, 0.16
402.096, 0.15
402.539, 0.16
402.982, 0.15
403.424, 0.15
403.867, 0.15
404.309, 0.15
404.752, 0.14
405.194, 0.15
405.637, 0.15
406.079, 0.15
406.521, 0.14
406.963, 0.14
407.406, 0.14
407.848, 0.14
408.29, 0.14
408.732, 0.13
409.174, 0.13
409.616, 0.13
410.058, 0.13
410.499, 0.13
410.941, 0.13
411.383, 0.13
411.825, 0.13
412.266, 0.13
412.708, 0.13
413.15, 0.12
413.591, 0.12
414.033, 0.12
414.474, 0.12
414.915, 0.12
415.357, 0.12
415.798, 0.11
416.239, 0.11
416.68, 0.11
417.121, 0.11
417.563, 0.11
418.004, 0.11
418.445, 0.11
418.885, 0.11
419.326, 0.11
419.767, 0.1
420.208, 0.1
420.649, 0.1
421.089, 0.1
421.53, 0.1
421.971, 0.09
422.411, 0.1
422.852, 0.1
423.292, 0.1
423.733, 0.1
424.173, 0.1
424.613, 0.1
425.054, 0.1
425.494, 0.09
425.934, 0.1
426.374, 0.1
426.814, 0.1
427.254, 0.1
427.694, 0.1
428.134, 0.1
428.574, 0.1
429.014, 0.11
429.454, 0.1
429.893, 0.1
430.333, 0.1
430.773, 0.1
431.212, 0.1
431.652, 0.11
432.091, 0.11
432.531, 0.11
432.97, 0.12
433.41, 0.12
433.849, 0.12
434.288, 0.12
434.727, 0.13
435.167, 0.13
435.606, 0.13
436.045, 0.13
436.484, 0.14
436.923, 0.13
437.362, 0.14
437.801, 0.15
438.239, 0.15
438.678, 0.16
439.117, 0.16
439.556, 0.16
439.994, 0.17
440.433, 0.16
440.871, 0.17
441.31, 0.17
441.748, 0.18
442.187, 0.19
442.625, 0.19
443.063, 0.2
443.502, 0.19
443.94, 0.2
444.378, 0.2
444.816, 0.21
445.254, 0.22
445.692, 0.21
446.13, 0.23
446.568, 0.24
447.006, 0.23
447.444, 0.24
447.881, 0.24
448.319, 0.25
448.757, 0.26
449.194, 0.27
449.632, 0.28
450.07, 0.28
450.507, 0.3
450.944, 0.29
451.382, 0.3
451.819, 0.31
452.256, 0.32
452.694, 0.32
453.131, 0.34
453.568, 0.35
454.005, 0.36
454.442, 0.37
454.879, 0.38
455.316, 0.38
455.753, 0.39
456.19, 0.41
456.627, 0.42
457.063, 0.43
457.5, 0.44
457.937, 0.45
458.373, 0.46
458.81, 0.47
459.246, 0.47
459.683, 0.49
460.119, 0.51
460.556, 0.51
460.992, 0.53
461.428, 0.53
461.864, 0.55
462.301, 0.55
462.737, 0.56
463.173, 0.59
463.609, 0.59
464.045, 0.6
464.481, 0.61
464.917, 0.62
465.352, 0.64
465.788, 0.65
466.224, 0.66
466.66, 0.67
467.095, 0.7
467.531, 0.7
467.966, 0.7
468.402, 0.72
468.837, 0.73
469.273, 0.74
469.708, 0.76
470.143, 0.77
470.578, 0.79
471.014, 0.81
471.449, 0.82
471.884, 0.83
472.319, 0.86
472.754, 0.88
473.189, 0.88
473.624, 0.91
474.059, 0.92
474.493, 0.93
474.928, 0.97
475.363, 0.98
475.797, 1.01
476.232, 1.03
476.667, 1.05
477.101, 1.08
477.536, 1.09
477.97, 1.11
478.404, 1.12
478.839, 1.17
479.273, 1.19
479.707, 1.21
480.141, 1.26
480.575, 1.26
481.009, 1.29
481.444, 1.34
481.877, 1.35
482.311, 1.42
482.745, 1.44
483.179, 1.48
483.613, 1.49
484.047, 1.53
484.48, 1.6
484.914, 1.56
485.347, 1.59
485.781, 1.61
486.214, 1.62
486.648, 1.66
487.081, 1.75
487.515, 1.68
487.948, 1.7
488.381, 1.72
488.814, 1.74
489.247, 1.82
489.68, 1.75
490.113, 1.81
490.546, 1.86
490.979, 1.83
491.412, 1.89
491.845, 1.8
492.278, 1.91
492.711, 1.84
493.143, 1.86
493.576, 1.92
494.009, 1.92
494.441, 1.89
494.874, 1.87
495.306, 1.96
495.738, 1.9
496.171, 1.94
496.603, 2
497.035, 2.05
497.467, 1.96
497.9, 1.95
498.332, 2.02
498.764, 1.9
499.196, 1.95
499.628, 1.98
500.06, 1.91
500.491, 1.91
500.923, 2.02
501.355, 2
501.787, 2.05
502.218, 2.07
502.65, 1.95
503.081, 1.93
503.513, 2.06
503.944, 2
504.376, 2.09
504.807, 2.1
505.238, 2.03
505.67, 1.96
506.101, 2.05
506.532, 1.99
506.963, 2.03
507.394, 2.09
507.825, 1.99
508.256, 2.08
508.687, 1.97
509.118, 2.02
509.549, 1.95
509.979, 2.06
510.41, 2.05
510.841, 2.06
511.271, 1.99
511.702, 1.98
512.132, 2.02
512.563, 2.15
512.993, 1.98
513.424, 2.03
513.854, 2.05
514.284, 2.03
514.714, 1.92
515.145, 2.04
515.575, 2.07
516.005, 2.1
516.435, 2.06
516.865, 1.99
517.295, 1.99
517.724, 2.02
518.154, 2.03
518.584, 1.96
519.014, 2.04
519.443, 2.11
519.873, 2.06
520.303, 2
520.732, 2
521.161, 2.02
521.591, 2.03
522.02, 2.02
522.45, 1.99
522.879, 2.07
523.308, 2.06
523.737, 1.99
524.166, 1.93
524.595, 2.11
525.024, 1.95
525.453, 1.99
525.882, 1.96
526.311, 2.09
526.74, 1.93
527.169, 1.96
527.597, 1.99
528.026, 2.03
528.455, 2.02
528.883, 2.07
529.312, 1.97
529.74, 2
530.168, 2
530.597, 2.03
531.025, 2.05
531.453, 1.96
531.882, 1.95
532.31, 2.11
532.738, 2.09
533.166, 1.98
533.594, 1.95
534.022, 2.04
534.45, 1.92
534.878, 1.97
535.305, 2.02
535.733, 1.97
536.161, 1.98
536.588, 2.06
537.016, 2.03
537.444, 2
537.871, 1.94
538.299, 2.06
538.726, 2
539.153, 2.02
539.581, 2.03
540.008, 2.16
540.435, 1.94
540.862, 1.88
541.289, 2
541.716, 1.91
542.143, 1.97
542.57, 1.97
542.997, 1.93
543.424, 1.97
543.851, 1.92
544.277, 1.99
544.704, 1.95
545.131, 1.86
545.557, 2.07
545.984, 1.98
546.41, 1.9
546.837, 1.98
547.263, 1.92
547.69, 1.95
548.116, 1.97
548.542, 1.9
548.968, 1.9
549.394, 1.96
549.82, 1.85
550.246, 1.8
550.672, 1.77
551.098, 1.7
551.524, 1.7
551.95, 1.62
552.376, 1.58
552.802, 1.51
553.227, 1.44
553.653, 1.38
554.078, 1.32
554.504, 1.23
554.929, 1.19
555.355, 1.13
555.78, 1.06
556.206, 0.99
556.631, 0.93
557.056, 0.88
557.481, 0.83
557.906, 0.76
558.331, 0.71
558.756, 0.66
559.181, 0.61
559.606, 0.57
560.031, 0.52
560.456, 0.49
560.881, 0.44
561.305, 0.41
561.73, 0.38
562.155, 0.35
562.579, 0.31
563.004, 0.29
563.428, 0.26
563.853, 0.24
564.277, 0.21
564.701, 0.2
565.126, 0.18
565.55, 0.16
565.974, 0.14
566.398, 0.13
566.822, 0.11
567.246, 0.1
567.67, 0.08
568.094, 0.07
568.518, 0.06
568.941, 0.04
569.365, 0.04
569.789, 0.03
570.213, 0.02
570.636, 0.02
571.06, 0.01
571.483, 0.01
571.907, 0.01
572.33, 0.01
572.753, 0
573.177, 0
573.6, 0
574.023, 0
574.446, 0
574.869, 0
575.292, 0
575.715, 0
576.138, -0.01
576.561, -0.01
576.984, -0.01
577.407, 0
577.829, 0
578.252, 0
578.675, 0
579.097, 0
579.52, 0
579.942, 0
580.364, 0
580.787, 0
581.209, 0
581.631, 0
582.054, 0
582.476, 0
582.898, 0
583.32, 0
583.742, 0
584.164, -0.01
584.586, -0.01
585.008, -0.01
585.429, 0
585.851, 0
586.273, 0
586.694, 0
587.116, 0
587.538, 0
587.959, 0
588.38, -0.01
588.802, -0.01
589.223, -0.01
589.644, -0.01
590.066, -0.01
590.487, -0.01
590.908, -0.01
591.329, -0.02
591.75, -0.01
592.171, -0.01
592.592, 0
593.013, 0
593.434, 0
593.854, 0
594.275, 0
594.696, 0
595.116, 0
595.537, 0
595.957, -0.01
596.378, 0
596.798, 0
597.218, 0
597.639, 0
598.059, 0
598.479, 0
598.899, 0
599.319, 0
599.739, 0
600.159, 0
600.579, 0
600.999, 0
601.419, 0
601.839, 0
602.259, 0
602.678, 0
603.098, 0
603.517, 0
603.937, 0
604.356, 0
604.776, 0
605.195, 0
605.614, 0
606.034, 0
606.453, 0
606.872, 0
607.291, 0
607.71, 0
608.129, 0
608.548, 0
608.967, 0
609.386, 0
609.805, 0
610.223, 0
610.642, 0
611.061, 0
611.479, 0
611.898, 0
612.316, 0
612.735, 0
613.153, 0
613.571, 0
613.99, 0
614.408, 0
614.826, 0
615.244, 0
615.662, 0
616.08, 0
616.498, 0
616.916, 0
617.334, -0.01
617.752, -0.01
618.169, -0.01
618.587, -0.01
619.005, -0.01
619.422, -0.01
619.84, -0.01
620.257, -0.01
620.675, -0.01
621.092, -0.01
621.509, -0.01
621.927, -0.01
622.344, -0.01
622.761, -0.01
623.178, -0.01
623.595, -0.01
624.012, -0.01
624.429, -0.01
624.846, -0.01
625.263, -0.01
625.68, -0.01
626.097, -0.01
626.513, -0.01
626.93, -0.01
627.346, -0.01
627.763, -0.02
628.179, -0.01
628.596, -0.02
629.012, -0.02
629.429, -0.02
629.845, -0.02
630.261, -0.02
630.677, -0.02
631.093, -0.02
631.509, -0.02
631.925, -0.02
632.341, -0.02
632.757, -0.02
633.173, -0.02
633.589, -0.02
634.005, -0.02
634.42, -0.02
634.836, -0.02
635.252, -0.02
635.667, -0.02
636.083, -0.02
636.498, -0.02
636.913, -0.02
637.329, -0.02
637.744, -0.02
638.159, -0.02
638.574, -0.02
638.99, -0.02
639.405, -0.02
639.82, -0.02
640.235, -0.02
640.65, -0.02
641.064, -0.02
641.479, -0.02
641.894, -0.02
642.309, -0.02
642.723, -0.02
643.138, -0.02
643.552, -0.02
643.967, -0.02
644.381, -0.02
644.796, -0.02
645.21, -0.01
645.624, -0.02
646.038, -0.02
646.453, -0.02
646.867, -0.02
647.281, -0.01
647.695, -0.01
648.109, -0.01
648.523, -0.01
648.936, -0.01
649.35, -0.01
649.764, -0.01
650.178, -0.01
650.591, -0.01
651.005, -0.01
651.418, -0.01
651.832, -0.01
652.245, -0.01
652.659, -0.01
653.072, -0.01
653.485, -0.01
653.898, -0.01
654.312, -0.01
654.725, -0.01
655.138, 0
655.551, 0
655.964, 0
656.377, 0
656.789, 0
657.202, 0
657.615, 0
658.028, 0
658.44, 0
658.853, -0.01
659.265, -0.01
659.678, -0.01
660.09, -0.01
660.503, -0.01
660.915, -0.01
661.327, -0.01
661.739, -0.01
662.152, -0.01
662.564, -0.01
662.976, -0.01
663.388, -0.01
663.8, -0.01
664.211, -0.01
664.623, -0.01
665.035, -0.01
665.447, -0.01
665.858, -0.01
666.27, -0.01
666.682, -0.01
667.093, -0.01
667.505, -0.01
667.916, -0.01
668.327, -0.01
668.739, -0.01
669.15, -0.01
669.561, -0.01
669.972, -0.01
670.383, -0.01
670.794, -0.01
671.205, -0.01
671.616, -0.01
672.027, -0.01
672.438, -0.01
672.849, -0.01
673.259, -0.01
673.67, -0.01
674.08, -0.01
674.491, -0.01
674.901, -0.01
675.312, -0.01
675.722, -0.01
676.133, -0.01
676.543, -0.01
676.953, -0.01
677.363, -0.01
677.773, -0.01
678.183, -0.01
678.593, -0.01
679.003, -0.01
679.413, -0.01
679.823, -0.01
680.233, -0.01
680.643, -0.01
681.052, -0.01
681.462, -0.01
681.872, -0.01
682.281, -0.01
682.691, -0.01
683.1, -0.02
683.509, -0.01
683.919, -0.01
684.328, -0.01
684.737, -0.01
685.146, -0.01
685.555, -0.01
685.964, -0.01
686.373, -0.01
686.782, -0.01
687.191, -0.01
687.6, -0.02
688.009, -0.02
688.417, -0.02
688.826, -0.02
689.235, -0.02
689.643, -0.02
690.052, -0.02
690.46, -0.02
690.869, -0.02
691.277, -0.02
691.685, -0.02
692.093, -0.02
692.502, -0.02
692.91, -0.02
693.318, -0.02
693.726, -0.02
694.134, -0.02
694.542, -0.02
694.949, -0.02
695.357, -0.02
695.765, -0.02
696.173, -0.02
696.58, -0.02
696.988, -0.02
697.395, -0.02
697.803, -0.02
698.21, -0.02
698.618, -0.02
699.025, -0.02
699.432, -0.02
699.839, -0.03
700.247, -0.02
700.654, -0.02
701.061, -0.03
701.468, -0.03
701.875, -0.02
702.281, -0.03
702.688, -0.03
703.095, -0.03
703.502, -0.03
703.908, -0.03
704.315, -0.02
704.722, -0.03
705.128, -0.03
705.534, -0.03
705.941, -0.02
706.347, -0.03
706.753, -0.02
707.16, -0.02
707.566, -0.02
707.972, -0.02
708.378, -0.02
708.784, -0.02
709.19, -0.03
709.596, -0.02
710.002, -0.02
710.407, -0.03
710.813, -0.02
711.219, -0.03
711.625, -0.02
712.03, -0.02
712.436, -0.02
712.841, -0.03
713.246, -0.02
713.652, -0.02
714.057, -0.03
714.462, -0.02
714.868, -0.03
715.273, -0.02
715.678, -0.03
716.083, -0.02
716.488, -0.02
716.893, -0.03
717.297, -0.03
717.702, -0.03
718.107, -0.02
718.512, -0.02
718.916, -0.02
719.321, -0.02
719.725, -0.02
720.13, -0.02
720.534, -0.03
720.939, -0.02
721.343, -0.02
721.747, -0.02
722.151, -0.03
722.556, -0.02
722.96, -0.03
723.364, -0.02
723.768, -0.03
724.172, -0.03
724.576, -0.03
724.979, -0.03
725.383, -0.03
725.787, -0.02
726.19, -0.03
726.594, -0.02
726.998, -0.02
727.401, -0.03
727.805, -0.02
728.208, -0.02
728.611, -0.02
729.014, -0.02
729.418, -0.02
729.821, -0.02
730.224, -0.02
730.627, -0.02
731.03, -0.02
731.433, -0.02
731.836, -0.02
732.239, -0.02
732.641, -0.02
733.044, -0.02
733.447, -0.02
733.849, -0.02
734.252, -0.02
734.654, -0.02
735.057, -0.02
735.459, -0.02
735.862, -0.02
736.264, -0.02
736.666, -0.02
737.068, -0.02
737.47, -0.03
737.872, -0.03
738.274, -0.02
738.676, -0.03
739.078, -0.03
739.48, -0.03
739.882, -0.03
740.284, -0.03
740.685, -0.03
741.087, -0.03
741.488, -0.03
741.89, -0.04
742.291, -0.03
742.693, -0.03
743.094, -0.04
743.495, -0.04
743.897, -0.04
744.298, -0.04
744.699, -0.04
745.1, -0.04
745.501, -0.04
745.902, -0.04
746.303, -0.05
746.704, -0.04
747.105, -0.04
747.505, -0.04
747.906, -0.04
748.307, -0.04
748.707, -0.04
749.108, -0.04
749.508, -0.04
749.908, -0.04
750.309, -0.04
750.709, -0.03
751.109, -0.03
751.51, -0.03
751.91, -0.03
752.31, -0.03
752.71, -0.03
753.11, -0.03
753.51, -0.03
753.909, -0.03
754.309, -0.03
754.709, -0.03
755.109, -0.03
755.508, -0.03
755.908, -0.03
756.307, -0.03
756.707, -0.03
757.106, -0.03
757.505, -0.03
757.905, -0.03
758.304, -0.04
758.703, -0.04
759.102, -0.04
759.501, -0.05
759.9, -0.05
760.299, -0.05
760.698, -0.05
761.097, -0.05
761.496, -0.05
761.895, -0.05
762.293, -0.05
762.692, -0.05
763.09, -0.05
763.489, -0.06
763.887, -0.05
764.286, -0.05
764.684, -0.05
765.082, -0.06
765.481, -0.05
765.879, -0.06
766.277, -0.06
766.675, -0.06
767.073, -0.06
767.471, -0.06
767.869, -0.06
768.267, -0.06
768.664, -0.06
769.062, -0.07
769.46, -0.06
769.857, -0.07
770.255, -0.06
770.653, -0.06
771.05, -0.06
771.447, -0.07
771.845, -0.07
772.242, -0.07
772.639, -0.07
773.036, -0.07
773.433, -0.07
773.831, -0.07
774.228, -0.07
774.624, -0.07
775.021, -0.07
775.418, -0.07
775.815, -0.08
776.212, -0.08
776.608, -0.08
777.005, -0.08
777.401, -0.07
777.798, -0.08
778.194, -0.08
778.591, -0.08
778.987, -0.08
779.383, -0.08
779.78, -0.08
780.176, -0.08
780.572, -0.08
780.968, -0.08
781.364, -0.08
781.76, -0.09
782.156, -0.08
782.551, -0.08
782.947, -0.08
783.343, -0.08
783.739, -0.09
784.134, -0.08
784.53, -0.08
784.925, -0.08
785.321, -0.09
785.716, -0.08
786.111, -0.09
786.507, -0.09
786.902, -0.09
787.297, -0.09
787.692, -0.09
788.087, -0.09
788.482, -0.09
788.877, -0.09
789.272, -0.09
789.667, -0.09
790.061, -0.09
790.456, -0.09
790.851, -0.09
791.245, -0.09
791.64, -0.09
792.034, -0.09
792.429, -0.09
792.823, -0.09
793.217, -0.1
793.612, -0.09
794.006, -0.09
794.4, -0.09
794.794, -0.09
795.188, -0.09
795.582, -0.1
795.976, -0.1
796.37, -0.1
796.763, -0.09
797.157, -0.1
797.551, -0.1
797.944, -0.1
798.338, -0.1
798.731, -0.1
799.125, -0.1
799.518, -0.1
799.912, -0.1
800.305, -0.1
800.698, -0.1
801.091, -0.1
801.484, -0.11
801.877, -0.11
802.27, -0.11
802.663, -0.1
803.056, -0.11
803.449, -0.11
803.842, -0.11
804.235, -0.11
804.627, -0.11
805.02, -0.11
805.412, -0.1
805.805, -0.11
806.197, -0.1
806.59, -0.1
806.982, -0.11
807.374, -0.11
807.766, -0.11
808.159, -0.1
808.551, -0.11
808.943, -0.1
809.335, -0.1
809.727, -0.11
810.118, -0.11
810.51, -0.11
810.902, -0.11
811.294, -0.11
811.685, -0.11
812.077, -0.11
812.468, -0.11
812.86, -0.11
813.251, -0.11
813.643, -0.1
814.034, -0.11
814.425, -0.11
814.816, -0.11
815.207, -0.11
815.598, -0.12
815.989, -0.1
816.38, -0.11
816.771, -0.11
817.162, -0.11
817.553, -0.11
817.944, -0.11
818.334, -0.11
818.725, -0.1
819.115, -0.11
819.506, -0.11
819.896, -0.1
820.287, -0.11
820.677, -0.11
821.067, -0.11
821.457, -0.11
821.848, -0.11
822.238, -0.11
822.628, -0.11
823.018, -0.11
823.408, -0.11
823.797, -0.1
824.187, -0.1
824.577, -0.1
824.967, -0.11
825.356, -0.11
825.746, -0.11
826.135, -0.1
826.525, -0.11
826.914, -0.1
827.304, -0.1
827.693, -0.1
828.082, -0.1
828.471, -0.11
828.86, -0.11
829.249, -0.11
829.638, -0.1
830.027, -0.1
830.416, -0.11
830.805, -0.1
831.194, -0.1
831.582, -0.1
831.971, -0.1
832.36, -0.1
832.748, -0.11
833.137, -0.1
833.525, -0.1
833.914, -0.1
834.302, -0.11
834.69, -0.1
835.078, -0.1
835.466, -0.1
835.854, -0.1
836.243, -0.09
836.63, -0.1
837.018, -0.09
837.406, -0.1
837.794, -0.1
838.182, -0.1
838.569, -0.1
838.957, -0.1
839.345, -0.1
839.732, -0.1
840.12, -0.09
840.507, -0.1
840.894, -0.09
841.282, -0.09
841.669, -0.09
842.056, -0.09
842.443, -0.1
842.83, -0.09
843.217, -0.08
843.604, -0.07
843.991, -0.08
844.378, -0.08
844.764, -0.1
845.151, -0.08
845.538, -0.08
845.924, -0.09
846.311, -0.09
846.697, -0.08
847.084, -0.08
847.47, -0.08
847.856, -0.08
848.242, -0.08
848.629, -0.07
849.015, -0.08
849.401, -0.07
849.787, -0.08
850.173, -0.08
850.559, -0.09
850.944, -0.09
851.33, -0.07
851.716, -0.09
852.102, -0.08
852.487, -0.09
852.873, -0.06
853.258, -0.07
853.644, -0.08
854.029, -0.09
854.414, -0.07
854.799, -0.08
855.185, -0.07
855.57, -0.08
855.955, -0.07
856.34, -0.07
856.725, -0.07
857.11, -0.06
857.495, -0.07
857.879, -0.07
858.264, -0.06
858.649, -0.06
859.033, -0.08
859.418, -0.07
859.802, -0.06
860.187, -0.06
860.571, -0.07
860.955, -0.07
861.34, -0.06
861.724, -0.06
862.108, -0.06
862.492, -0.06
862.876, -0.06
863.26, -0.08
863.644, -0.05
864.028, -0.05
864.412, -0.06
864.795, -0.07
865.179, -0.04
865.563, -0.05
865.946, -0.07
866.33, -0.06
866.713, -0.06
867.097, -0.05
867.48, -0.05
867.863, -0.05
868.246, -0.06
868.629, -0.05
869.013, -0.05
869.396, -0.06
869.779, -0.06
870.161, -0.06
870.544, -0.07
870.927, -0.05
871.31, -0.05
871.693, -0.06
872.075, -0.06
872.458, -0.06
872.84, -0.06
873.223, -0.05
873.605, -0.05
873.987, -0.04
874.37, -0.05
874.752, -0.05
875.134, -0.05
875.516, -0.07
875.898, -0.04
876.28, -0.06
876.662, -0.05
877.044, -0.06
877.426, -0.05
877.807, -0.05
878.189, -0.04
878.571, -0.03
878.952, -0.05
879.334, -0.05
879.715, -0.06
880.097, -0.05
880.478, -0.05
880.859, -0.04
881.24, -0.06
881.622, -0.06
882.003, -0.06
882.384, -0.05
882.765, -0.04
883.146, -0.06
883.526, -0.05
883.907, -0.06
884.288, -0.06
884.669, -0.05
885.049, -0.04
885.43, -0.05
885.81, -0.05
886.191, -0.07
886.571, -0.05
886.952, -0.05
887.332, -0.05
887.712, -0.05
888.092, -0.06
888.472, -0.06
888.852, -0.04
889.232, -0.05
889.612, -0.05
889.992, -0.05
890.372, -0.05
890.752, -0.06
891.131, -0.07
891.511, -0.06
891.89, -0.05
892.27, -0.06
892.649, -0.04
893.029, -0.05
893.408, -0.05
893.787, -0.04
894.167, -0.04
894.546, -0.03
894.925, -0.05
895.304, -0.05
895.683, -0.05
896.062, -0.06
896.441, -0.05
896.819, -0.04
897.198, -0.05
897.577, -0.05
897.955, -0.07
898.334, -0.06
898.712, -0.05
899.091, -0.04
899.469, -0.05
899.848, -0.05
900.226, -0.07
900.604, -0.04
900.982, -0.04
901.36, -0.04
901.738, -0.04
902.116, -0.04
902.494, -0.03
902.872, -0.03
903.25, -0.05
903.628, -0.05
904.005, -0.06
904.383, -0.02
904.76, -0.03
905.138, -0.05
905.515, -0.04
905.893, -0.02
906.27, -0.02
906.647, -0.02
907.024, -0.03
907.402, -0.05
907.779, -0.05
908.156, -0.06
908.533, -0.04
908.91, 0
909.286, -0.01
909.663, -0.02
910.04, -0.02
910.417, -0.03
910.793, -0.05
911.17, -0.05
911.546, -0.04
911.923, -0.04
912.299, -0.03
912.675, -0.04
913.051, -0.04
913.428, -0.05
913.804, -0.03
914.18, -0.04
914.556, -0.04
914.932, -0.03
915.308, -0.05
915.683, -0.05
916.059, -0.02
916.435, -0.04
916.811, -0.05
917.186, -0.03
917.562, -0.03
917.937, -0.05
918.313, -0.06
918.688, -0.05
919.063, -0.04
919.438, 0.01
919.814, -0.05
920.189, -0.02
920.564, -0.04
920.939, -0.04
921.314, -0.04
921.689, -0.06
922.063, -0.03
922.438, -0.06
922.813, 0
923.187, -0.02
923.562, -0.03
923.936, -0.05
924.311, -0.02
924.685, -0.03
925.06, -0.02
925.434, -0.07
925.808, -0.05
926.182, -0.04
926.556, -0.02
926.93, -0.01
927.304, -0.02
927.678, -0.03
928.052, -0.03
928.426, -0.07
928.8, -0.05
929.173, -0.03
929.547, -0.06
929.92, -0.03
930.294, -0.03
930.667, -0.01
931.041, -0.06
931.414, -0.05
931.787, -0.01
932.161, -0.01
932.534, -0.04
932.907, -0.03
933.28, -0.04
933.653, -0.05
934.026, -0.03
934.398, 0.03
934.771, -0.03
935.144, -0.05
935.517, -0.03
935.889, -0.01
936.262, -0.04
936.634, -0.05
937.007, -0.01
937.379, -0.04
937.751, -0.08
938.123, 0.01
938.496, -0.07
938.868, -0.04
939.24, 0
939.612, -0.06
939.984, 0
940.355, -0.02
940.727, -0.04
941.099, 0.01
941.471, -0.03
941.842, -0.02
942.214, -0.02
942.585, -0.02
942.957, -0.07
943.328, -0.04
943.7, -0.04
944.071, 0
944.442, -0.02
944.813, -0.03
945.184, -0.02
945.555, -0.01
945.926, -0.01
946.297, -0.05
946.668, -0.05
947.039, 0.03
947.409, -0.04
947.78, 0.05
948.151, -0.1
948.521, -0.04
948.892, -0.01
949.262, 0.02
949.633, -0.05
950.003, 0
950.373, -0.01
950.743, -0.05
951.113, -0.02
951.483, 0.01
951.853, -0.02
952.223, -0.06
952.593, -0.04
952.963, 0.02
953.333, -0.06
953.702, 0.01
954.072, 0.03
954.442, 0
954.811, -0.06
955.181, 0.03
955.55, -0.02
955.919, 0.03
956.289, -0.04
956.658, -0.09
957.027, -0.05
957.396, -0.02
957.765, 0.04
958.134, -0.02
958.503, 0.02
958.872, 0.03
959.24, -0.04
959.609, -0.05
959.978, 0
960.346, 0.02
960.715, -0.08
961.083, -0.04
961.452, -0.03
961.82, -0.03
962.188, -0.03
962.557, -0.03
962.925, -0.06
963.293, -0.04
963.661, -0.05
964.029, -0.05
964.397, -0.01
964.765, 0.02
965.133, -0.01
965.5, -0.02
965.868, -0.02
966.236, -0.08
966.603, 0.09
966.971, -0.04
967.338, -0.07
967.706, -0.06
968.073, -0.06
968.44, -0.03
968.807, 0.13
969.174, 0.06
969.542, 0.1
969.909, 0
970.275, -0.11
970.642, 0.11
971.009, 0.04
971.376, -0.06
971.743, -0.08
972.109, -0.01
972.476, -0.13
972.842, -0.03
973.209, 0.03
973.575, -0.09
973.942, -0.07
974.308, -0.06
974.674, 0
975.04, 0.03
975.406, -0.1
975.772, -0.06
976.138, 0.03
976.504, 0.03
976.87, -0.08
977.236, -0.02
977.602, 0
977.967, -0.02
978.333, -0.06
978.698, -0.03
979.064, -0.14
979.429, 0.08
979.795, 0.02
980.16, -0.05
980.525, 0.07
980.89, 0
981.255, -0.09
981.621, 0.07
981.986, 0.09
982.35, -0.02
982.715, -0.11
983.08, -0.06
983.445, -0.03
983.81, 0.01
984.174, -0.01
984.539, 0.08
984.903, 0.08
985.268, 0.04
985.632, -0.02
985.996, -0.15
986.361, 0.02
986.725, -0.03
987.089, -0.07
987.453, -0.03
987.817, 0.05
988.181, 0.06
988.545, -0.07
988.909, -0.04
989.272, -0.01
989.636, -0.07
990, -0.09
990.363, -0.05
990.727, 0.11
991.09, 0.05
991.454, 0.02
991.817, 0.02
992.18, -0.05
992.543, 0.01
992.907, 0.07
993.27, 0
993.633, -0.04
993.996, 0.07
994.359, 0
994.721, -0.01
995.084, -0.07
995.447, 0.02
995.81, -0.08
996.172, -0.01
996.535, -0.04
996.897, 0.09
997.259, -0.02
997.622, 0.07
997.984, -0.02
998.346, -0.11
998.708, -0.1
999.071, -0.17
999.433, -0.17
999.795, -0.06
1000.156, -0.06
1000.518, -0.04
1000.88, -0.01
1001.242, -0.01
1001.603, -0.09
1001.965, 0.02
1002.327, -0.02
1002.688, 0.09
1003.049, -0.02
1003.411, 0
1003.772, -0.01
1004.133, 0.07
1004.495, 0.15
1004.856, -0.11
1005.217, -0.1
1005.578, -0.1
1005.939, 0.04
1006.299, 0.01
1006.66, -0.01
1007.021, -0.18
1007.382, 0.17
1007.742, -0.02
1008.103, 0.04
1008.463, 0.07
1008.824, 0.06
1009.184, -0.16
1009.544, -0.08
1009.904, -0.2
1010.265, -0.08
1010.625, -0.13
1010.985, 0.03
1011.345, 0.08
1011.705, -0.05
1012.065, 0.02
1012.424, -0.15
1012.784, 0.05
1013.144, -0.02
1013.503, 0.05
1013.863, 0.04
1014.222, 0.06
1014.582, 0.15
1014.941, -0.11
1015.3, 0.01
1015.66, -0.11
1016.019, -0.06
1016.378, -0.19
1016.737, -0.09
1017.096, 0.12
1017.455, -0.12
1017.814, -0.15
1018.173, -0.01
1018.531, 0.18
1018.89, -0.08
1019.249, 0.07
1019.607, -0.19
1019.966, -0.06
1020.324, 0.12
1020.682, 0.01
1021.041, -0.02
1021.399, 0.03
1021.757, -0.04
1022.115, 0.13
1022.473, -0.19
1022.831, -0.1
1023.189, -0.11
1023.547, 0.02
1023.905, 0.15
1024.263, -0.02
1024.62, -0.02
1024.978, 0.03
1025.335, -0.01
1025.693, 0.02
1026.05, -0.07
1026.408, 0.04
1026.765, -0.26
1027.122, -0.23
1027.479, 0.08
1027.837, 0.14
1028.194, 0.07
1028.551, 0.19
1028.908, 0.1
1029.264, -0.03
1029.621, 0.05
1029.978, 0
1030.335, -0.1
1030.691, 0.06
1031.048, -0.11
1031.404, 0.08
1031.761, -0.13
1032.117, 0.04
1032.473, 0
1032.83, -0.19
1033.186, -0.16
1033.542, -0.03
1033.898, 0.1
1034.254, 0
1034.61, 0
1034.966, 0
