Absorbance:209, 
188.96, 1.04
189.424, 1.04
189.887, 1.04
190.351, 0
190.815, 0
191.279, -1.12
191.742, -0.15
192.206, 1.75
192.669, -0.45
193.133, -0.53
193.596, 0.2
194.06, -0.22
194.523, 1.04
194.987, 0.13
195.45, 0.08
195.913, 0
196.376, 0
196.84, -1.01
197.303, 0.02
197.766, 0.39
198.229, 0
198.692, 0.04
199.155, 0
199.618, -0.01
200.081, 0.04
200.543, -0.02
201.006, 0.04
201.469, 0.02
201.932, 0.03
202.394, -0.02
202.857, 0.02
203.32, 0
203.782, -0.01
204.245, 0.01
204.707, 0.02
205.169, -0.01
205.632, 0.05
206.094, 0.02
206.556, 0
207.019, 0.03
207.481, 0.03
207.943, 0.06
208.405, 0.07
208.867, 0.07
209.329, 0.06
209.791, 0.08
210.253, 0.1
210.715, 0.11
211.177, 0.14
211.639, 0.14
212.1, 0.2
212.562, 0.21
213.024, 0.22
213.485, 0.27
213.947, 0.33
214.408, 0.38
214.87, 0.39
215.331, 0.51
215.793, 0.53
216.254, 0.57
216.715, 0.65
217.177, 0.71
217.638, 0.81
218.099, 0.89
218.56, 0.98
219.021, 1.04
219.482, 1.06
219.944, 1.12
220.404, 1.23
220.865, 1.27
221.326, 1.32
221.787, 1.38
222.248, 1.44
222.709, 1.46
223.169, 1.49
223.63, 1.51
224.091, 1.61
224.551, 1.56
225.012, 1.58
225.472, 1.63
225.933, 1.63
226.393, 1.61
226.854, 1.58
227.314, 1.59
227.774, 1.56
228.234, 1.55
228.695, 1.5
229.155, 1.45
229.615, 1.42
230.075, 1.35
230.535, 1.28
230.995, 1.23
231.455, 1.17
231.915, 1.11
232.375, 1.05
232.834, 1
233.294, 0.92
233.754, 0.88
234.214, 0.83
234.673, 0.78
235.133, 0.73
235.592, 0.69
236.052, 0.66
236.511, 0.63
236.971, 0.6
237.43, 0.56
237.889, 0.55
238.349, 0.52
238.808, 0.51
239.267, 0.5
239.726, 0.49
240.185, 0.48
240.644, 0.47
241.103, 0.47
241.562, 0.47
242.021, 0.47
242.48, 0.47
242.939, 0.46
243.398, 0.47
243.857, 0.48
244.315, 0.48
244.774, 0.49
245.233, 0.49
245.691, 0.5
246.15, 0.52
246.608, 0.52
247.067, 0.53
247.525, 0.53
247.983, 0.54
248.442, 0.55
248.9, 0.55
249.358, 0.56
249.816, 0.58
250.274, 0.57
250.733, 0.57
251.191, 0.59
251.649, 0.6
252.107, 0.61
252.564, 0.63
253.022, 0.64
253.48, 0.65
253.938, 0.66
254.396, 0.67
254.853, 0.69
255.311, 0.69
255.769, 0.72
256.226, 0.73
256.684, 0.75
257.141, 0.77
257.599, 0.79
258.056, 0.8
258.513, 0.81
258.971, 0.83
259.428, 0.83
259.885, 0.85
260.342, 0.85
260.799, 0.86
261.256, 0.85
261.714, 0.85
262.171, 0.83
262.627, 0.82
263.084, 0.81
263.541, 0.79
263.998, 0.76
264.455, 0.75
264.912, 0.72
265.368, 0.7
265.825, 0.66
266.281, 0.64
266.738, 0.62
267.194, 0.6
267.651, 0.57
268.107, 0.55
268.564, 0.53
269.02, 0.52
269.476, 0.51
269.933, 0.49
270.389, 0.48
270.845, 0.48
271.301, 0.47
271.757, 0.46
272.213, 0.46
272.669, 0.46
273.125, 0.46
273.581, 0.47
274.037, 0.49
274.492, 0.49
274.948, 0.49
275.404, 0.5
275.86, 0.52
276.315, 0.53
276.771, 0.55
277.226, 0.56
277.682, 0.58
278.137, 0.59
278.593, 0.61
279.048, 0.61
279.503, 0.65
279.958, 0.66
280.414, 0.68
280.869, 0.71
281.324, 0.71
281.779, 0.73
282.234, 0.75
282.689, 0.76
283.144, 0.79
283.599, 0.79
284.054, 0.8
284.508, 0.81
284.963, 0.82
285.418, 0.83
285.873, 0.85
286.327, 0.86
286.782, 0.88
287.236, 0.86
287.691, 0.88
288.145, 0.89
288.6, 0.89
289.054, 0.92
289.508, 0.91
289.963, 0.92
290.417, 0.94
290.871, 0.96
291.325, 0.96
291.779, 0.98
292.233, 0.98
292.687, 1
293.141, 1.02
293.595, 1.02
294.049, 1.05
294.503, 1.06
294.957, 1.06
295.41, 1.08
295.864, 1.09
296.318, 1.11
296.771, 1.13
297.225, 1.14
297.678, 1.16
298.132, 1.17
298.585, 1.18
299.039, 1.2
299.492, 1.18
299.945, 1.23
300.398, 1.21
300.852, 1.23
301.305, 1.23
301.758, 1.24
302.211, 1.23
302.664, 1.25
303.117, 1.27
303.57, 1.26
304.023, 1.27
304.476, 1.25
304.928, 1.25
305.381, 1.23
305.834, 1.22
306.286, 1.22
306.739, 1.2
307.192, 1.19
307.644, 1.18
308.097, 1.15
308.549, 1.14
309.001, 1.12
309.454, 1.11
309.906, 1.09
310.358, 1.06
310.81, 1.05
311.263, 1.02
311.715, 1.01
312.167, 0.99
312.619, 0.98
313.071, 0.96
313.523, 0.95
313.975, 0.93
314.426, 0.92
314.878, 0.93
315.33, 0.92
315.782, 0.95
316.233, 0.93
316.685, 0.94
317.136, 0.93
317.588, 0.93
318.039, 0.93
318.491, 0.89
318.942, 0.86
319.393, 0.84
319.845, 0.85
320.296, 0.85
320.747, 0.87
321.198, 0.87
321.649, 0.86
322.101, 0.88
322.552, 0.89
323.003, 0.91
323.453, 0.91
323.904, 0.9
324.355, 0.9
324.806, 0.89
325.257, 0.89
325.707, 0.88
326.158, 0.86
326.609, 0.85
327.059, 0.83
327.51, 0.83
327.96, 0.83
328.411, 0.8
328.861, 0.79
329.311, 0.77
329.762, 0.75
330.212, 0.74
330.662, 0.72
331.112, 0.7
331.562, 0.69
332.012, 0.67
332.462, 0.66
332.912, 0.64
333.362, 0.62
333.812, 0.62
334.262, 0.6
334.712, 0.58
335.161, 0.57
335.611, 0.55
336.061, 0.54
336.51, 0.53
336.96, 0.51
337.409, 0.5
337.859, 0.48
338.308, 0.46
338.758, 0.45
339.207, 0.43
339.656, 0.42
340.105, 0.4
340.555, 0.38
341.004, 0.37
341.453, 0.36
341.902, 0.34
342.351, 0.33
342.8, 0.32
343.249, 0.31
343.698, 0.29
344.146, 0.28
344.595, 0.27
345.044, 0.26
345.493, 0.25
345.941, 0.24
346.39, 0.23
346.838, 0.22
347.287, 0.21
347.735, 0.2
348.184, 0.19
348.632, 0.19
349.08, 0.18
349.529, 0.18
349.977, 0.17
350.425, 0.17
350.873, 0.17
351.321, 0.16
351.769, 0.16
352.217, 0.16
352.665, 0.15
353.113, 0.16
353.561, 0.15
354.009, 0.15
354.456, 0.15
354.904, 0.16
355.352, 0.15
355.799, 0.15
356.247, 0.15
356.694, 0.15
357.142, 0.15
357.589, 0.15
358.037, 0.16
358.484, 0.16
358.931, 0.16
359.379, 0.16
359.826, 0.17
360.273, 0.17
360.72, 0.17
361.167, 0.17
361.614, 0.17
362.061, 0.18
362.508, 0.19
362.955, 0.19
363.402, 0.2
363.848, 0.2
364.295, 0.21
364.742, 0.22
365.188, 0.21
365.635, 0.22
366.082, 0.22
366.528, 0.23
366.975, 0.23
367.421, 0.24
367.867, 0.24
368.314, 0.25
368.76, 0.26
369.206, 0.26
369.652, 0.26
370.098, 0.26
370.545, 0.27
370.991, 0.28
371.437, 0.29
371.882, 0.3
372.328, 0.29
372.774, 0.3
373.22, 0.31
373.666, 0.31
374.111, 0.32
374.557, 0.33
375.003, 0.33
375.448, 0.33
375.894, 0.34
376.339, 0.35
376.785, 0.36
377.23, 0.36
377.675, 0.36
378.121, 0.37
378.566, 0.38
379.011, 0.37
379.456, 0.39
379.901, 0.4
380.346, 0.41
380.791, 0.41
381.236, 0.42
381.681, 0.42
382.126, 0.44
382.571, 0.44
383.016, 0.45
383.461, 0.46
383.905, 0.47
384.35, 0.47
384.794, 0.49
385.239, 0.49
385.683, 0.5
386.128, 0.5
386.572, 0.52
387.017, 0.53
387.461, 0.54
387.905, 0.54
388.349, 0.56
388.794, 0.56
389.238, 0.57
389.682, 0.57
390.126, 0.59
390.57, 0.6
391.014, 0.6
391.457, 0.62
391.901, 0.63
392.345, 0.63
392.789, 0.64
393.233, 0.65
393.676, 0.65
394.12, 0.67
394.563, 0.67
395.007, 0.68
395.45, 0.69
395.894, 0.7
396.337, 0.71
396.78, 0.7
397.224, 0.71
397.667, 0.73
398.11, 0.73
398.553, 0.74
398.996, 0.75
399.439, 0.75
399.882, 0.75
400.325, 0.76
400.768, 0.78
401.211, 0.77
401.654, 0.79
402.096, 0.77
402.539, 0.78
402.982, 0.78
403.424, 0.79
403.867, 0.8
404.309, 0.79
404.752, 0.78
405.194, 0.8
405.637, 0.79
406.079, 0.8
406.521, 0.81
406.963, 0.81
407.406, 0.81
407.848, 0.81
408.29, 0.82
408.732, 0.82
409.174, 0.84
409.616, 0.84
410.058, 0.82
410.499, 0.83
410.941, 0.83
411.383, 0.82
411.825, 0.84
412.266, 0.85
412.708, 0.84
413.15, 0.83
413.591, 0.84
414.033, 0.84
414.474, 0.84
414.915, 0.85
415.357, 0.87
415.798, 0.85
416.239, 0.85
416.68, 0.84
417.121, 0.85
417.563, 0.85
418.004, 0.86
418.445, 0.86
418.885, 0.87
419.326, 0.86
419.767, 0.85
420.208, 0.86
420.649, 0.86
421.089, 0.87
421.53, 0.86
421.971, 0.87
422.411, 0.86
422.852, 0.85
423.292, 0.87
423.733, 0.84
424.173, 0.85
424.613, 0.85
425.054, 0.84
425.494, 0.84
425.934, 0.83
426.374, 0.83
426.814, 0.82
427.254, 0.8
427.694, 0.8
428.134, 0.8
428.574, 0.8
429.014, 0.8
429.454, 0.79
429.893, 0.79
430.333, 0.77
430.773, 0.76
431.212, 0.74
431.652, 0.73
432.091, 0.74
432.531, 0.7
432.97, 0.72
433.41, 0.68
433.849, 0.69
434.288, 0.67
434.727, 0.65
435.167, 0.64
435.606, 0.64
436.045, 0.62
436.484, 0.59
436.923, 0.57
437.362, 0.57
437.801, 0.55
438.239, 0.54
438.678, 0.52
439.117, 0.5
439.556, 0.49
439.994, 0.48
440.433, 0.45
440.871, 0.44
441.31, 0.42
441.748, 0.41
442.187, 0.4
442.625, 0.37
443.063, 0.36
443.502, 0.33
443.94, 0.33
444.378, 0.32
444.816, 0.3
445.254, 0.28
445.692, 0.27
446.13, 0.25
446.568, 0.24
447.006, 0.22
447.444, 0.21
447.881, 0.2
448.319, 0.18
448.757, 0.18
449.194, 0.17
449.632, 0.16
450.07, 0.14
450.507, 0.13
450.944, 0.11
451.382, 0.1
451.819, 0.1
452.256, 0.08
452.694, 0.07
453.131, 0.07
453.568, 0.06
454.005, 0.05
454.442, 0.04
454.879, 0.04
455.316, 0.02
455.753, 0.02
456.19, 0.01
456.627, 0
457.063, -0.01
457.5, -0.01
457.937, -0.01
458.373, -0.02
458.81, -0.03
459.246, -0.04
459.683, -0.04
460.119, -0.04
460.556, -0.06
460.992, -0.05
461.428, -0.06
461.864, -0.06
462.301, -0.06
462.737, -0.07
463.173, -0.07
463.609, -0.08
464.045, -0.07
464.481, -0.08
464.917, -0.09
465.352, -0.09
465.788, -0.09
466.224, -0.09
466.66, -0.1
467.095, -0.1
467.531, -0.09
467.966, -0.1
468.402, -0.1
468.837, -0.1
469.273, -0.1
469.708, -0.1
470.143, -0.11
470.578, -0.1
471.014, -0.11
471.449, -0.11
471.884, -0.11
472.319, -0.11
472.754, -0.11
473.189, -0.12
473.624, -0.12
474.059, -0.11
474.493, -0.12
474.928, -0.12
475.363, -0.12
475.797, -0.12
476.232, -0.12
476.667, -0.11
477.101, -0.12
477.536, -0.12
477.97, -0.11
478.404, -0.12
478.839, -0.12
479.273, -0.11
479.707, -0.11
480.141, -0.12
480.575, -0.11
481.009, -0.12
481.444, -0.12
481.877, -0.12
482.311, -0.12
482.745, -0.12
483.179, -0.12
483.613, -0.11
484.047, -0.11
484.48, -0.11
484.914, -0.12
485.347, -0.11
485.781, -0.11
486.214, -0.11
486.648, -0.11
487.081, -0.1
487.515, -0.1
487.948, -0.1
488.381, -0.1
488.814, -0.11
489.247, -0.11
489.68, -0.11
490.113, -0.11
490.546, -0.11
490.979, -0.11
491.412, -0.11
491.845, -0.11
492.278, -0.1
492.711, -0.11
493.143, -0.11
493.576, -0.11
494.009, -0.11
494.441, -0.11
494.874, -0.11
495.306, -0.1
495.738, -0.1
496.171, -0.11
496.603, -0.1
497.035, -0.1
497.467, -0.09
497.9, -0.1
498.332, -0.1
498.764, -0.1
499.196, -0.1
499.628, -0.1
500.06, -0.11
500.491, -0.1
500.923, -0.1
501.355, -0.1
501.787, -0.1
502.218, -0.1
502.65, -0.1
503.081, -0.1
503.513, -0.1
503.944, -0.09
504.376, -0.09
504.807, -0.1
505.238, -0.09
505.67, -0.09
506.101, -0.1
506.532, -0.1
506.963, -0.1
507.394, -0.09
507.825, -0.1
508.256, -0.1
508.687, -0.1
509.118, -0.1
509.549, -0.1
509.979, -0.1
510.41, -0.1
510.841, -0.1
511.271, -0.1
511.702, -0.09
512.132, -0.09
512.563, -0.1
512.993, -0.1
513.424, -0.09
513.854, -0.1
514.284, -0.1
514.714, -0.1
515.145, -0.1
515.575, -0.1
516.005, -0.1
516.435, -0.1
516.865, -0.1
517.295, -0.1
517.724, -0.1
518.154, -0.1
518.584, -0.09
519.014, -0.09
519.443, -0.1
519.873, -0.1
520.303, -0.1
520.732, -0.09
521.161, -0.1
521.591, -0.1
522.02, -0.1
522.45, -0.1
522.879, -0.09
523.308, -0.1
523.737, -0.1
524.166, -0.1
524.595, -0.1
525.024, -0.1
525.453, -0.1
525.882, -0.1
526.311, -0.1
526.74, -0.1
527.169, -0.1
527.597, -0.1
528.026, -0.1
528.455, -0.1
528.883, -0.1
529.312, -0.09
529.74, -0.1
530.168, -0.1
530.597, -0.1
531.025, -0.09
531.453, -0.1
531.882, -0.1
532.31, -0.09
532.738, -0.09
533.166, -0.09
533.594, -0.09
534.022, -0.09
534.45, -0.09
534.878, -0.09
535.305, -0.09
535.733, -0.09
536.161, -0.09
536.588, -0.09
537.016, -0.09
537.444, -0.09
537.871, -0.09
538.299, -0.09
538.726, -0.09
539.153, -0.08
539.581, -0.08
540.008, -0.08
540.435, -0.09
540.862, -0.08
541.289, -0.08
541.716, -0.08
542.143, -0.09
542.57, -0.08
542.997, -0.09
543.424, -0.08
543.851, -0.08
544.277, -0.08
544.704, -0.08
545.131, -0.08
545.557, -0.08
545.984, -0.08
546.41, -0.08
546.837, -0.07
547.263, -0.08
547.69, -0.08
548.116, -0.07
548.542, -0.07
548.968, -0.07
549.394, -0.07
549.82, -0.08
550.246, -0.08
550.672, -0.08
551.098, -0.08
551.524, -0.08
551.95, -0.08
552.376, -0.07
552.802, -0.08
553.227, -0.07
553.653, -0.07
554.078, -0.06
554.504, -0.07
554.929, -0.07
555.355, -0.07
555.78, -0.07
556.206, -0.07
556.631, -0.07
557.056, -0.07
557.481, -0.07
557.906, -0.07
558.331, -0.07
558.756, -0.07
559.181, -0.07
559.606, -0.07
560.031, -0.07
560.456, -0.07
560.881, -0.07
561.305, -0.07
561.73, -0.06
562.155, -0.06
562.579, -0.06
563.004, -0.06
563.428, -0.06
563.853, -0.06
564.277, -0.06
564.701, -0.06
565.126, -0.06
565.55, -0.06
565.974, -0.06
566.398, -0.06
566.822, -0.06
567.246, -0.05
567.67, -0.05
568.094, -0.05
568.518, -0.04
568.941, -0.04
569.365, -0.03
569.789, -0.03
570.213, -0.02
570.636, -0.02
571.06, -0.01
571.483, -0.01
571.907, -0.01
572.33, -0.01
572.753, -0.01
573.177, -0.01
573.6, -0.01
574.023, 0
574.446, 0
574.869, 0
575.292, 0
575.715, 0
576.138, -0.01
576.561, -0.01
576.984, -0.01
577.407, 0
577.829, 0
578.252, 0
578.675, 0
579.097, 0
579.52, 0
579.942, 0
580.364, 0
580.787, 0
581.209, 0
581.631, 0
582.054, 0
582.476, 0
582.898, 0
583.32, 0
583.742, 0
584.164, -0.01
584.586, -0.01
585.008, -0.01
585.429, 0
585.851, 0
586.273, 0
586.694, 0
587.116, 0
587.538, 0
587.959, 0
588.38, -0.01
588.802, -0.01
589.223, -0.01
589.644, -0.01
590.066, -0.01
590.487, -0.01
590.908, -0.01
591.329, -0.02
591.75, -0.01
592.171, -0.01
592.592, 0
593.013, 0
593.434, 0
593.854, 0
594.275, 0
594.696, 0
595.116, 0
595.537, 0
595.957, -0.01
596.378, 0
596.798, 0
597.218, 0
597.639, 0
598.059, 0
598.479, 0
598.899, 0
599.319, 0
599.739, 0
600.159, 0
600.579, 0
600.999, 0
601.419, 0
601.839, 0
602.259, 0
602.678, 0
603.098, 0
603.517, 0
603.937, 0
604.356, 0
604.776, 0
605.195, 0
605.614, 0
606.034, 0
606.453, 0
606.872, 0
607.291, 0
607.71, 0
608.129, 0
608.548, 0
608.967, 0
609.386, 0
609.805, 0
610.223, 0
610.642, 0
611.061, 0
611.479, 0
611.898, 0
612.316, 0
612.735, 0
613.153, 0
613.571, 0
613.99, 0
614.408, 0
614.826, 0
615.244, 0
615.662, 0
616.08, 0
616.498, 0
616.916, 0
617.334, -0.01
617.752, -0.01
618.169, -0.01
618.587, -0.01
619.005, -0.01
619.422, -0.01
619.84, -0.01
620.257, -0.02
620.675, -0.01
621.092, -0.01
621.509, -0.01
621.927, -0.01
622.344, -0.01
622.761, -0.01
623.178, -0.01
623.595, -0.01
624.012, -0.01
624.429, -0.01
624.846, -0.01
625.263, -0.01
625.68, -0.01
626.097, -0.01
626.513, -0.01
626.93, -0.01
627.346, -0.02
627.763, -0.02
628.179, -0.01
628.596, -0.02
629.012, -0.02
629.429, -0.02
629.845, -0.02
630.261, -0.02
630.677, -0.02
631.093, -0.02
631.509, -0.02
631.925, -0.02
632.341, -0.02
632.757, -0.02
633.173, -0.02
633.589, -0.02
634.005, -0.02
634.42, -0.02
634.836, -0.02
635.252, -0.02
635.667, -0.02
636.083, -0.02
636.498, -0.02
636.913, -0.02
637.329, -0.02
637.744, -0.02
638.159, -0.02
638.574, -0.02
638.99, -0.02
639.405, -0.02
639.82, -0.02
640.235, -0.02
640.65, -0.02
641.064, -0.02
641.479, -0.02
641.894, -0.02
642.309, -0.02
642.723, -0.02
643.138, -0.02
643.552, -0.02
643.967, -0.02
644.381, -0.02
644.796, -0.02
645.21, -0.01
645.624, -0.02
646.038, -0.02
646.453, -0.02
646.867, -0.02
647.281, -0.01
647.695, -0.01
648.109, -0.01
648.523, -0.01
648.936, -0.01
649.35, -0.01
649.764, -0.01
650.178, -0.01
650.591, -0.01
651.005, -0.01
651.418, -0.01
651.832, -0.01
652.245, -0.01
652.659, -0.01
653.072, -0.01
653.485, -0.01
653.898, -0.01
654.312, -0.01
654.725, -0.01
655.138, 0
655.551, 0
655.964, 0
656.377, 0
656.789, 0
657.202, 0
657.615, 0
658.028, 0
658.44, 0
658.853, -0.01
659.265, -0.01
659.678, -0.01
660.09, -0.01
660.503, -0.01
660.915, -0.01
661.327, -0.01
661.739, -0.01
662.152, -0.01
662.564, -0.01
662.976, -0.01
663.388, -0.01
663.8, -0.01
664.211, -0.01
664.623, -0.01
665.035, -0.01
665.447, -0.01
665.858, -0.01
666.27, -0.01
666.682, -0.01
667.093, -0.01
667.505, -0.01
667.916, -0.01
668.327, -0.01
668.739, -0.01
669.15, -0.01
669.561, -0.01
669.972, -0.01
670.383, -0.01
670.794, -0.01
671.205, -0.01
671.616, -0.01
672.027, -0.01
672.438, -0.01
672.849, -0.01
673.259, -0.01
673.67, -0.01
674.08, -0.01
674.491, -0.01
674.901, -0.01
675.312, -0.01
675.722, -0.01
676.133, -0.01
676.543, -0.01
676.953, -0.01
677.363, -0.01
677.773, -0.01
678.183, -0.01
678.593, -0.01
679.003, -0.01
679.413, -0.01
679.823, -0.01
680.233, -0.01
680.643, -0.01
681.052, -0.01
681.462, -0.01
681.872, -0.01
682.281, -0.01
682.691, -0.01
683.1, -0.02
683.509, -0.01
683.919, -0.01
684.328, -0.01
684.737, -0.01
685.146, -0.01
685.555, -0.01
685.964, -0.01
686.373, -0.01
686.782, -0.01
687.191, -0.02
687.6, -0.02
688.009, -0.02
688.417, -0.02
688.826, -0.02
689.235, -0.02
689.643, -0.02
690.052, -0.02
690.46, -0.02
690.869, -0.02
691.277, -0.02
691.685, -0.02
692.093, -0.02
692.502, -0.02
692.91, -0.02
693.318, -0.02
693.726, -0.02
694.134, -0.02
694.542, -0.02
694.949, -0.02
695.357, -0.02
695.765, -0.02
696.173, -0.02
696.58, -0.02
696.988, -0.02
697.395, -0.02
697.803, -0.02
698.21, -0.02
698.618, -0.02
699.025, -0.02
699.432, -0.02
699.839, -0.03
700.247, -0.02
700.654, -0.02
701.061, -0.03
701.468, -0.03
701.875, -0.02
702.281, -0.03
702.688, -0.03
703.095, -0.03
703.502, -0.03
703.908, -0.03
704.315, -0.02
704.722, -0.03
705.128, -0.03
705.534, -0.03
705.941, -0.02
706.347, -0.03
706.753, -0.02
707.16, -0.02
707.566, -0.02
707.972, -0.02
708.378, -0.02
708.784, -0.02
709.19, -0.03
709.596, -0.02
710.002, -0.02
710.407, -0.03
710.813, -0.02
711.219, -0.03
711.625, -0.02
712.03, -0.02
712.436, -0.02
712.841, -0.03
713.246, -0.02
713.652, -0.02
714.057, -0.03
714.462, -0.03
714.868, -0.03
715.273, -0.02
715.678, -0.03
716.083, -0.02
716.488, -0.03
716.893, -0.03
717.297, -0.03
717.702, -0.03
718.107, -0.02
718.512, -0.02
718.916, -0.02
719.321, -0.03
719.725, -0.02
720.13, -0.02
720.534, -0.03
720.939, -0.02
721.343, -0.02
721.747, -0.02
722.151, -0.03
722.556, -0.02
722.96, -0.03
723.364, -0.02
723.768, -0.03
724.172, -0.03
724.576, -0.03
724.979, -0.03
725.383, -0.03
725.787, -0.02
726.19, -0.03
726.594, -0.02
726.998, -0.02
727.401, -0.03
727.805, -0.02
728.208, -0.02
728.611, -0.02
729.014, -0.02
729.418, -0.02
729.821, -0.02
730.224, -0.02
730.627, -0.02
731.03, -0.02
731.433, -0.02
731.836, -0.02
732.239, -0.02
732.641, -0.02
733.044, -0.02
733.447, -0.02
733.849, -0.02
734.252, -0.02
734.654, -0.02
735.057, -0.02
735.459, -0.02
735.862, -0.02
736.264, -0.02
736.666, -0.02
737.068, -0.02
737.47, -0.03
737.872, -0.03
738.274, -0.02
738.676, -0.03
739.078, -0.03
739.48, -0.03
739.882, -0.03
740.284, -0.03
740.685, -0.03
741.087, -0.03
741.488, -0.03
741.89, -0.04
742.291, -0.03
742.693, -0.03
743.094, -0.04
743.495, -0.04
743.897, -0.04
744.298, -0.04
744.699, -0.04
745.1, -0.04
745.501, -0.04
745.902, -0.04
746.303, -0.05
746.704, -0.04
747.105, -0.04
747.505, -0.04
747.906, -0.04
748.307, -0.04
748.707, -0.04
749.108, -0.04
749.508, -0.04
749.908, -0.04
750.309, -0.04
750.709, -0.03
751.109, -0.03
751.51, -0.03
751.91, -0.03
752.31, -0.03
752.71, -0.03
753.11, -0.03
753.51, -0.03
753.909, -0.03
754.309, -0.03
754.709, -0.03
755.109, -0.03
755.508, -0.03
755.908, -0.03
756.307, -0.03
756.707, -0.03
757.106, -0.03
757.505, -0.03
757.905, -0.03
758.304, -0.04
758.703, -0.04
759.102, -0.04
759.501, -0.05
759.9, -0.05
760.299, -0.05
760.698, -0.05
761.097, -0.06
761.496, -0.06
761.895, -0.06
762.293, -0.06
762.692, -0.06
763.09, -0.07
763.489, -0.07
763.887, -0.06
764.286, -0.06
764.684, -0.06
765.082, -0.07
765.481, -0.06
765.879, -0.07
766.277, -0.07
766.675, -0.07
767.073, -0.07
767.471, -0.08
767.869, -0.07
768.267, -0.07
768.664, -0.08
769.062, -0.08
769.46, -0.07
769.857, -0.08
770.255, -0.08
770.653, -0.08
771.05, -0.08
771.447, -0.08
771.845, -0.08
772.242, -0.08
772.639, -0.09
773.036, -0.08
773.433, -0.08
773.831, -0.09
774.228, -0.09
774.624, -0.09
775.021, -0.09
775.418, -0.09
775.815, -0.09
776.212, -0.09
776.608, -0.09
777.005, -0.09
777.401, -0.09
777.798, -0.09
778.194, -0.09
778.591, -0.1
778.987, -0.1
779.383, -0.1
779.78, -0.1
780.176, -0.09
780.572, -0.1
780.968, -0.09
781.364, -0.09
781.76, -0.1
782.156, -0.1
782.551, -0.1
782.947, -0.1
783.343, -0.1
783.739, -0.1
784.134, -0.1
784.53, -0.1
784.925, -0.1
785.321, -0.11
785.716, -0.1
786.111, -0.11
786.507, -0.11
786.902, -0.1
787.297, -0.11
787.692, -0.11
788.087, -0.11
788.482, -0.11
788.877, -0.11
789.272, -0.11
789.667, -0.11
790.061, -0.11
790.456, -0.11
790.851, -0.11
791.245, -0.11
791.64, -0.12
792.034, -0.12
792.429, -0.11
792.823, -0.12
793.217, -0.12
793.612, -0.11
794.006, -0.11
794.4, -0.11
794.794, -0.12
795.188, -0.12
795.582, -0.12
795.976, -0.13
796.37, -0.13
796.763, -0.12
797.157, -0.13
797.551, -0.13
797.944, -0.13
798.338, -0.14
798.731, -0.13
799.125, -0.13
799.518, -0.13
799.912, -0.14
800.305, -0.13
800.698, -0.14
801.091, -0.14
801.484, -0.14
801.877, -0.14
802.27, -0.14
802.663, -0.14
803.056, -0.14
803.449, -0.14
803.842, -0.15
804.235, -0.14
804.627, -0.14
805.02, -0.15
805.412, -0.14
805.805, -0.15
806.197, -0.14
806.59, -0.14
806.982, -0.14
807.374, -0.14
807.766, -0.15
808.159, -0.15
808.551, -0.15
808.943, -0.15
809.335, -0.15
809.727, -0.15
810.118, -0.15
810.51, -0.15
810.902, -0.16
811.294, -0.16
811.685, -0.16
812.077, -0.15
812.468, -0.15
812.86, -0.15
813.251, -0.16
813.643, -0.16
814.034, -0.15
814.425, -0.15
814.816, -0.16
815.207, -0.15
815.598, -0.16
815.989, -0.15
816.38, -0.16
816.771, -0.16
817.162, -0.16
817.553, -0.16
817.944, -0.15
818.334, -0.15
818.725, -0.16
819.115, -0.16
819.506, -0.16
819.896, -0.15
820.287, -0.16
820.677, -0.16
821.067, -0.16
821.457, -0.16
821.848, -0.16
822.238, -0.16
822.628, -0.16
823.018, -0.16
823.408, -0.16
823.797, -0.15
824.187, -0.15
824.577, -0.16
824.967, -0.15
825.356, -0.16
825.746, -0.16
826.135, -0.15
826.525, -0.16
826.914, -0.15
827.304, -0.15
827.693, -0.16
828.082, -0.15
828.471, -0.15
828.86, -0.15
829.249, -0.16
829.638, -0.15
830.027, -0.15
830.416, -0.16
830.805, -0.14
831.194, -0.15
831.582, -0.15
831.971, -0.15
832.36, -0.15
832.748, -0.15
833.137, -0.14
833.525, -0.15
833.914, -0.14
834.302, -0.14
834.69, -0.15
835.078, -0.14
835.466, -0.14
835.854, -0.14
836.243, -0.14
836.63, -0.14
837.018, -0.14
837.406, -0.14
837.794, -0.14
838.182, -0.14
838.569, -0.13
838.957, -0.14
839.345, -0.13
839.732, -0.14
840.12, -0.14
840.507, -0.14
840.894, -0.13
841.282, -0.13
841.669, -0.13
842.056, -0.13
842.443, -0.13
842.83, -0.13
843.217, -0.12
843.604, -0.12
843.991, -0.12
844.378, -0.11
844.764, -0.13
845.151, -0.12
845.538, -0.11
845.924, -0.12
846.311, -0.12
846.697, -0.12
847.084, -0.11
847.47, -0.11
847.856, -0.12
848.242, -0.1
848.629, -0.11
849.015, -0.11
849.401, -0.11
849.787, -0.11
850.173, -0.11
850.559, -0.11
850.944, -0.11
851.33, -0.1
851.716, -0.11
852.102, -0.11
852.487, -0.11
852.873, -0.09
853.258, -0.1
853.644, -0.11
854.029, -0.11
854.414, -0.11
854.799, -0.1
855.185, -0.09
855.57, -0.1
855.955, -0.1
856.34, -0.09
856.725, -0.1
857.11, -0.09
857.495, -0.09
857.879, -0.08
858.264, -0.08
858.649, -0.09
859.033, -0.1
859.418, -0.09
859.802, -0.08
860.187, -0.08
860.571, -0.09
860.955, -0.08
861.34, -0.09
861.724, -0.08
862.108, -0.09
862.492, -0.08
862.876, -0.08
863.26, -0.09
863.644, -0.07
864.028, -0.08
864.412, -0.09
864.795, -0.08
865.179, -0.08
865.563, -0.08
865.946, -0.08
866.33, -0.08
866.713, -0.08
867.097, -0.07
867.48, -0.07
867.863, -0.06
868.246, -0.09
868.629, -0.07
869.013, -0.07
869.396, -0.09
869.779, -0.09
870.161, -0.08
870.544, -0.08
870.927, -0.09
871.31, -0.07
871.693, -0.07
872.075, -0.07
872.458, -0.08
872.84, -0.08
873.223, -0.08
873.605, -0.06
873.987, -0.08
874.37, -0.08
874.752, -0.08
875.134, -0.09
875.516, -0.08
875.898, -0.07
876.28, -0.09
876.662, -0.08
877.044, -0.08
877.426, -0.09
877.807, -0.08
878.189, -0.07
878.571, -0.07
878.952, -0.08
879.334, -0.07
879.715, -0.09
880.097, -0.08
880.478, -0.09
880.859, -0.08
881.24, -0.08
881.622, -0.11
882.003, -0.09
882.384, -0.08
882.765, -0.08
883.146, -0.09
883.526, -0.09
883.907, -0.1
884.288, -0.1
884.669, -0.09
885.049, -0.09
885.43, -0.09
885.81, -0.1
886.191, -0.09
886.571, -0.09
886.952, -0.1
887.332, -0.09
887.712, -0.09
888.092, -0.09
888.472, -0.1
888.852, -0.1
889.232, -0.09
889.612, -0.1
889.992, -0.1
890.372, -0.09
890.752, -0.11
891.131, -0.11
891.511, -0.11
891.89, -0.1
892.27, -0.11
892.649, -0.09
893.029, -0.1
893.408, -0.1
893.787, -0.1
894.167, -0.09
894.546, -0.09
894.925, -0.11
895.304, -0.12
895.683, -0.11
896.062, -0.11
896.441, -0.11
896.819, -0.1
897.198, -0.11
897.577, -0.11
897.955, -0.13
898.334, -0.12
898.712, -0.12
899.091, -0.11
899.469, -0.12
899.848, -0.1
900.226, -0.12
900.604, -0.11
900.982, -0.1
901.36, -0.11
901.738, -0.09
902.116, -0.11
902.494, -0.1
902.872, -0.11
903.25, -0.12
903.628, -0.11
904.005, -0.12
904.383, -0.08
904.76, -0.12
905.138, -0.13
905.515, -0.13
905.893, -0.1
906.27, -0.1
906.647, -0.11
907.024, -0.11
907.402, -0.12
907.779, -0.13
908.156, -0.12
908.533, -0.09
908.91, -0.1
909.286, -0.09
909.663, -0.1
910.04, -0.1
910.417, -0.1
910.793, -0.11
911.17, -0.14
911.546, -0.11
911.923, -0.12
912.299, -0.11
912.675, -0.1
913.051, -0.1
913.428, -0.12
913.804, -0.11
914.18, -0.11
914.556, -0.1
914.932, -0.09
915.308, -0.13
915.683, -0.11
916.059, -0.11
916.435, -0.11
916.811, -0.12
917.186, -0.11
917.562, -0.14
917.937, -0.11
918.313, -0.11
918.688, -0.11
919.063, -0.11
919.438, -0.09
919.814, -0.14
920.189, -0.1
920.564, -0.11
920.939, -0.11
921.314, -0.1
921.689, -0.13
922.063, -0.1
922.438, -0.11
922.813, -0.07
923.187, -0.06
923.562, -0.1
923.936, -0.08
924.311, -0.08
924.685, -0.08
925.06, -0.1
925.434, -0.11
925.808, -0.09
926.182, -0.11
926.556, -0.07
926.93, -0.1
927.304, -0.08
927.678, -0.06
928.052, -0.1
928.426, -0.13
928.8, -0.12
929.173, -0.06
929.547, -0.13
929.92, -0.1
930.294, -0.1
930.667, -0.07
931.041, -0.08
931.414, -0.09
931.787, -0.06
932.161, -0.06
932.534, -0.11
932.907, -0.1
933.28, -0.09
933.653, -0.08
934.026, -0.06
934.398, -0.04
934.771, -0.08
935.144, -0.07
935.517, -0.07
935.889, -0.06
936.262, -0.09
936.634, -0.06
937.007, -0.06
937.379, -0.1
937.751, -0.09
938.123, -0.09
938.496, -0.03
938.868, -0.1
939.24, -0.08
939.612, -0.07
939.984, -0.08
940.355, -0.06
940.727, -0.07
941.099, -0.01
941.471, -0.08
941.842, -0.04
942.214, -0.04
942.585, -0.09
942.957, -0.07
943.328, -0.12
943.7, -0.06
944.071, -0.01
944.442, -0.02
944.813, -0.01
945.184, -0.06
945.555, -0.06
945.926, -0.05
946.297, -0.07
946.668, -0.03
947.039, -0.01
947.409, -0.04
947.78, -0.01
948.151, -0.1
948.521, -0.06
948.892, -0.02
949.262, 0
949.633, -0.03
950.003, -0.05
950.373, 0
950.743, -0.02
951.113, -0.04
951.483, 0.01
951.853, 0.01
952.223, -0.02
952.593, -0.04
952.963, 0.03
953.333, -0.06
953.702, 0.02
954.072, 0.05
954.442, -0.03
954.811, -0.08
955.181, 0.01
955.55, -0.03
955.919, 0.05
956.289, 0.03
956.658, -0.07
957.027, -0.03
957.396, 0
957.765, 0.04
958.134, -0.02
958.503, 0
958.872, 0.03
959.24, 0.04
959.609, -0.03
959.978, 0.02
960.346, -0.01
960.715, -0.06
961.083, 0
961.452, 0.05
961.82, 0.03
962.188, 0.06
962.557, 0.02
962.925, -0.02
963.293, 0.07
963.661, 0
964.029, 0.02
964.397, 0.03
964.765, 0.02
965.133, 0.05
965.5, -0.02
965.868, 0.13
966.236, -0.06
966.603, 0.07
966.971, 0.02
967.338, -0.05
967.706, -0.04
968.073, -0.12
968.44, 0.04
968.807, -0.01
969.174, 0.09
969.542, 0.06
969.909, 0.03
970.275, -0.06
970.642, 0.13
971.009, 0
971.376, -0.05
971.743, 0.03
972.109, 0.01
972.476, -0.08
972.842, 0.01
973.209, 0.12
973.575, 0.03
973.942, -0.14
974.308, 0
974.674, -0.02
975.04, 0
975.406, -0.07
975.772, -0.06
976.138, 0.1
976.504, -0.03
976.87, -0.05
977.236, 0
977.602, 0.01
977.967, 0.03
978.333, -0.06
978.698, -0.04
979.064, -0.08
979.429, 0.07
979.795, -0.02
980.16, -0.07
980.525, 0.04
980.89, 0.01
981.255, 0.04
981.621, 0.07
981.986, 0.04
982.35, -0.02
982.715, 0.02
983.08, 0.05
983.445, 0.07
983.81, -0.09
984.174, -0.04
984.539, 0.02
984.903, 0.02
985.268, -0.02
985.632, 0.04
985.996, -0.11
986.361, -0.01
986.725, -0.03
987.089, -0.07
987.453, 0.06
987.817, 0.06
988.181, 0.06
988.545, -0.06
988.909, 0.03
989.272, -0.01
989.636, -0.07
990, -0.16
990.363, -0.02
990.727, 0.07
991.09, 0.03
991.454, 0.03
991.817, -0.1
992.18, -0.14
992.543, -0.03
992.907, 0.01
993.27, 0.04
993.633, -0.06
993.996, -0.08
994.359, 0.01
994.721, -0.03
995.084, -0.04
995.447, -0.01
995.81, -0.09
996.172, -0.08
996.535, -0.05
996.897, 0.06
997.259, -0.03
997.622, 0.1
997.984, -0.1
998.346, -0.13
998.708, -0.03
999.071, -0.09
999.433, -0.06
999.795, -0.16
1000.156, -0.09
1000.518, 0.07
1000.88, -0.06
1001.242, -0.01
1001.603, -0.01
1001.965, 0.15
1002.327, 0.04
1002.688, 0.03
1003.049, -0.01
1003.411, 0
1003.772, -0.05
1004.133, 0.07
1004.495, -0.06
1004.856, -0.18
1005.217, 0.14
1005.578, -0.1
1005.939, -0.03
1006.299, -0.03
1006.66, -0.13
1007.021, -0.04
1007.382, 0.02
1007.742, 0.04
1008.103, 0.04
1008.463, -0.04
1008.824, -0.05
1009.184, -0.17
1009.544, 0.11
1009.904, -0.06
1010.265, -0.12
1010.625, -0.11
1010.985, -0.02
1011.345, 0.01
1011.705, -0.11
1012.065, -0.01
1012.424, -0.11
1012.784, -0.1
1013.144, -0.07
1013.503, 0.01
1013.863, 0.07
1014.222, -0.01
1014.582, 0.06
1014.941, -0.12
1015.3, 0.02
1015.66, 0.08
1016.019, 0.04
1016.378, -0.23
1016.737, -0.18
1017.096, 0.06
1017.455, 0
1017.814, -0.06
1018.173, 0.03
1018.531, -0.06
1018.89, -0.13
1019.249, 0.07
1019.607, -0.1
1019.966, -0.02
1020.324, -0.03
1020.682, 0.08
1021.041, -0.12
1021.399, -0.16
1021.757, 0.05
1022.115, -0.05
1022.473, -0.17
1022.831, -0.09
1023.189, -0.12
1023.547, -0.04
1023.905, -0.09
1024.263, -0.12
1024.62, -0.17
1024.978, -0.05
1025.335, -0.02
1025.693, -0.12
1026.05, -0.16
1026.408, 0.02
1026.765, -0.27
1027.122, -0.19
1027.479, 0.02
1027.837, -0.07
1028.194, 0.01
1028.551, 0.1
1028.908, -0.07
1029.264, -0.17
1029.621, -0.14
1029.978, -0.07
1030.335, -0.16
1030.691, 0.02
1031.048, -0.19
1031.404, -0.07
1031.761, -0.12
1032.117, 0.05
1032.473, 0
1032.83, -0.17
1033.186, -0.13
1033.542, 0.02
1033.898, -0.02
1034.254, -0.23
1034.61, -0.23
1034.966, -0.23
