Absorbance:209, 
188.96, 1.05
189.424, 1.05
189.887, 1.05
190.351, -0.25
190.815, 0
191.279, -1.03
191.742, 0.51
192.206, 0
192.669, 0
193.133, -0.3
193.596, 0
194.06, 0
194.523, 0.47
194.987, 0.13
195.45, -0.33
195.913, 0
196.376, 0
196.84, -1.04
197.303, 0.45
197.766, 0
198.229, 0
198.692, 0.11
199.155, 0
199.618, 0.11
200.081, 0.11
200.543, 0.1
201.006, 0.1
201.469, 0.08
201.932, 0.11
202.394, 0.07
202.857, 0.1
203.32, 0.1
203.782, 0.08
204.245, 0.09
204.707, 0.09
205.169, 0.12
205.632, 0.15
206.094, 0.12
206.556, 0.09
207.019, 0.12
207.481, 0.12
207.943, 0.13
208.405, 0.16
208.867, 0.19
209.329, 0.13
209.791, 0.23
210.253, 0.15
210.715, 0.21
211.177, 0.18
211.639, 0.23
212.1, 0.26
212.562, 0.28
213.024, 0.3
213.485, 0.31
213.947, 0.41
214.408, 0.41
214.87, 0.44
215.331, 0.5
215.793, 0.51
216.254, 0.61
216.715, 0.6
217.177, 0.68
217.638, 0.68
218.099, 0.73
218.56, 0.76
219.021, 0.8
219.482, 0.77
219.944, 0.8
220.404, 0.81
220.865, 0.83
221.326, 0.84
221.787, 0.84
222.248, 0.83
222.709, 0.83
223.169, 0.81
223.63, 0.82
224.091, 0.82
224.551, 0.8
225.012, 0.78
225.472, 0.77
225.933, 0.75
226.393, 0.74
226.854, 0.73
227.314, 0.7
227.774, 0.69
228.234, 0.68
228.695, 0.67
229.155, 0.65
229.615, 0.64
230.075, 0.62
230.535, 0.61
230.995, 0.61
231.455, 0.59
231.915, 0.59
232.375, 0.57
232.834, 0.56
233.294, 0.55
233.754, 0.55
234.214, 0.54
234.673, 0.54
235.133, 0.53
235.592, 0.52
236.052, 0.53
236.511, 0.52
236.971, 0.52
237.43, 0.51
237.889, 0.51
238.349, 0.5
238.808, 0.5
239.267, 0.5
239.726, 0.49
240.185, 0.49
240.644, 0.49
241.103, 0.48
241.562, 0.48
242.021, 0.47
242.48, 0.46
242.939, 0.46
243.398, 0.46
243.857, 0.45
244.315, 0.45
244.774, 0.45
245.233, 0.43
245.691, 0.43
246.15, 0.42
246.608, 0.42
247.067, 0.41
247.525, 0.41
247.983, 0.4
248.442, 0.39
248.9, 0.39
249.358, 0.38
249.816, 0.38
250.274, 0.37
250.733, 0.36
251.191, 0.37
251.649, 0.36
252.107, 0.36
252.564, 0.36
253.022, 0.36
253.48, 0.35
253.938, 0.34
254.396, 0.34
254.853, 0.34
255.311, 0.34
255.769, 0.34
256.226, 0.33
256.684, 0.33
257.141, 0.34
257.599, 0.35
258.056, 0.34
258.513, 0.34
258.971, 0.35
259.428, 0.36
259.885, 0.37
260.342, 0.36
260.799, 0.36
261.256, 0.37
261.714, 0.38
262.171, 0.38
262.627, 0.38
263.084, 0.39
263.541, 0.39
263.998, 0.41
264.455, 0.41
264.912, 0.42
265.368, 0.42
265.825, 0.43
266.281, 0.44
266.738, 0.45
267.194, 0.45
267.651, 0.46
268.107, 0.46
268.564, 0.47
269.02, 0.48
269.476, 0.49
269.933, 0.5
270.389, 0.51
270.845, 0.52
271.301, 0.53
271.757, 0.52
272.213, 0.52
272.669, 0.53
273.125, 0.54
273.581, 0.54
274.037, 0.54
274.492, 0.56
274.948, 0.56
275.404, 0.56
275.86, 0.55
276.315, 0.55
276.771, 0.55
277.226, 0.57
277.682, 0.56
278.137, 0.56
278.593, 0.57
279.048, 0.56
279.503, 0.57
279.958, 0.57
280.414, 0.58
280.869, 0.58
281.324, 0.59
281.779, 0.58
282.234, 0.58
282.689, 0.59
283.144, 0.6
283.599, 0.59
284.054, 0.6
284.508, 0.59
284.963, 0.6
285.418, 0.61
285.873, 0.61
286.327, 0.61
286.782, 0.62
287.236, 0.61
287.691, 0.61
288.145, 0.61
288.6, 0.61
289.054, 0.62
289.508, 0.63
289.963, 0.62
290.417, 0.62
290.871, 0.63
291.325, 0.62
291.779, 0.63
292.233, 0.63
292.687, 0.63
293.141, 0.63
293.595, 0.63
294.049, 0.64
294.503, 0.62
294.957, 0.63
295.41, 0.63
295.864, 0.63
296.318, 0.62
296.771, 0.62
297.225, 0.62
297.678, 0.62
298.132, 0.62
298.585, 0.62
299.039, 0.61
299.492, 0.62
299.945, 0.6
300.398, 0.6
300.852, 0.6
301.305, 0.6
301.758, 0.59
302.211, 0.59
302.664, 0.58
303.117, 0.59
303.57, 0.58
304.023, 0.58
304.476, 0.57
304.928, 0.57
305.381, 0.56
305.834, 0.55
306.286, 0.56
306.739, 0.56
307.192, 0.55
307.644, 0.55
308.097, 0.54
308.549, 0.54
309.001, 0.54
309.454, 0.54
309.906, 0.54
310.358, 0.53
310.81, 0.53
311.263, 0.53
311.715, 0.52
312.167, 0.53
312.619, 0.54
313.071, 0.53
313.523, 0.54
313.975, 0.53
314.426, 0.53
314.878, 0.54
315.33, 0.54
315.782, 0.56
316.233, 0.58
316.685, 0.58
317.136, 0.6
317.588, 0.58
318.039, 0.56
318.491, 0.53
318.942, 0.5
319.393, 0.49
319.845, 0.49
320.296, 0.5
320.747, 0.5
321.198, 0.52
321.649, 0.52
322.101, 0.55
322.552, 0.56
323.003, 0.58
323.453, 0.59
323.904, 0.59
324.355, 0.61
324.806, 0.61
325.257, 0.61
325.707, 0.61
326.158, 0.62
326.609, 0.63
327.059, 0.63
327.51, 0.63
327.96, 0.64
328.411, 0.64
328.861, 0.64
329.311, 0.66
329.762, 0.65
330.212, 0.65
330.662, 0.67
331.112, 0.66
331.562, 0.67
332.012, 0.67
332.462, 0.69
332.912, 0.68
333.362, 0.69
333.812, 0.68
334.262, 0.7
334.712, 0.69
335.161, 0.7
335.611, 0.7
336.061, 0.7
336.51, 0.7
336.96, 0.7
337.409, 0.7
337.859, 0.71
338.308, 0.7
338.758, 0.71
339.207, 0.71
339.656, 0.7
340.105, 0.72
340.555, 0.7
341.004, 0.71
341.453, 0.71
341.902, 0.71
342.351, 0.71
342.8, 0.72
343.249, 0.73
343.698, 0.73
344.146, 0.73
344.595, 0.73
345.044, 0.74
345.493, 0.74
345.941, 0.75
346.39, 0.74
346.838, 0.75
347.287, 0.74
347.735, 0.76
348.184, 0.76
348.632, 0.76
349.08, 0.77
349.529, 0.77
349.977, 0.77
350.425, 0.77
350.873, 0.77
351.321, 0.77
351.769, 0.77
352.217, 0.77
352.665, 0.77
353.113, 0.77
353.561, 0.78
354.009, 0.76
354.456, 0.76
354.904, 0.77
355.352, 0.75
355.799, 0.75
356.247, 0.75
356.694, 0.73
357.142, 0.74
357.589, 0.74
358.037, 0.73
358.484, 0.74
358.931, 0.72
359.379, 0.73
359.826, 0.73
360.273, 0.72
360.72, 0.71
361.167, 0.71
361.614, 0.72
362.061, 0.72
362.508, 0.71
362.955, 0.73
363.402, 0.73
363.848, 0.72
364.295, 0.73
364.742, 0.73
365.188, 0.74
365.635, 0.74
366.082, 0.74
366.528, 0.76
366.975, 0.76
367.421, 0.76
367.867, 0.78
368.314, 0.77
368.76, 0.78
369.206, 0.78
369.652, 0.79
370.098, 0.79
370.545, 0.8
370.991, 0.81
371.437, 0.81
371.882, 0.8
372.328, 0.81
372.774, 0.8
373.22, 0.79
373.666, 0.8
374.111, 0.78
374.557, 0.8
375.003, 0.79
375.448, 0.79
375.894, 0.77
376.339, 0.76
376.785, 0.77
377.23, 0.76
377.675, 0.76
378.121, 0.74
378.566, 0.74
379.011, 0.74
379.456, 0.74
379.901, 0.73
380.346, 0.71
380.791, 0.71
381.236, 0.72
381.681, 0.71
382.126, 0.71
382.571, 0.71
383.016, 0.71
383.461, 0.71
383.905, 0.71
384.35, 0.72
384.794, 0.72
385.239, 0.72
385.683, 0.73
386.128, 0.72
386.572, 0.72
387.017, 0.74
387.461, 0.75
387.905, 0.76
388.349, 0.76
388.794, 0.77
389.238, 0.77
389.682, 0.77
390.126, 0.78
390.57, 0.79
391.014, 0.79
391.457, 0.8
391.901, 0.81
392.345, 0.82
392.789, 0.84
393.233, 0.84
393.676, 0.86
394.12, 0.86
394.563, 0.85
395.007, 0.87
395.45, 0.86
395.894, 0.87
396.337, 0.89
396.78, 0.88
397.224, 0.89
397.667, 0.89
398.11, 0.92
398.553, 0.9
398.996, 0.92
399.439, 0.92
399.882, 0.91
400.325, 0.91
400.768, 0.93
401.211, 0.93
401.654, 0.93
402.096, 0.93
402.539, 0.94
402.982, 0.94
403.424, 0.96
403.867, 0.95
404.309, 0.95
404.752, 0.94
405.194, 0.98
405.637, 0.97
406.079, 0.96
406.521, 0.98
406.963, 0.99
407.406, 1
407.848, 1.01
408.29, 1.02
408.732, 1.01
409.174, 1.02
409.616, 1.04
410.058, 1.06
410.499, 1.05
410.941, 1.08
411.383, 1.07
411.825, 1.09
412.266, 1.11
412.708, 1.11
413.15, 1.12
413.591, 1.14
414.033, 1.15
414.474, 1.16
414.915, 1.18
415.357, 1.18
415.798, 1.17
416.239, 1.17
416.68, 1.21
417.121, 1.21
417.563, 1.24
418.004, 1.23
418.445, 1.27
418.885, 1.25
419.326, 1.28
419.767, 1.29
420.208, 1.29
420.649, 1.3
421.089, 1.33
421.53, 1.33
421.971, 1.35
422.411, 1.36
422.852, 1.35
423.292, 1.35
423.733, 1.38
424.173, 1.4
424.613, 1.45
425.054, 1.4
425.494, 1.46
425.934, 1.45
426.374, 1.45
426.814, 1.48
427.254, 1.48
427.694, 1.47
428.134, 1.47
428.574, 1.51
429.014, 1.5
429.454, 1.56
429.893, 1.56
430.333, 1.51
430.773, 1.58
431.212, 1.56
431.652, 1.56
432.091, 1.61
432.531, 1.52
432.97, 1.64
433.41, 1.55
433.849, 1.6
434.288, 1.57
434.727, 1.59
435.167, 1.66
435.606, 1.62
436.045, 1.66
436.484, 1.58
436.923, 1.59
437.362, 1.66
437.801, 1.65
438.239, 1.64
438.678, 1.67
439.117, 1.71
439.556, 1.7
439.994, 1.65
440.433, 1.67
440.871, 1.7
441.31, 1.73
441.748, 1.73
442.187, 1.73
442.625, 1.78
443.063, 1.69
443.502, 1.68
443.94, 1.76
444.378, 1.75
444.816, 1.76
445.254, 1.79
445.692, 1.68
446.13, 1.78
446.568, 1.79
447.006, 1.81
447.444, 1.78
447.881, 1.74
448.319, 1.69
448.757, 1.75
449.194, 1.8
449.632, 1.77
450.07, 1.82
450.507, 1.83
450.944, 1.84
451.382, 1.8
451.819, 1.79
452.256, 1.81
452.694, 1.83
453.131, 1.74
453.568, 1.91
454.005, 1.89
454.442, 1.83
454.879, 1.75
455.316, 1.76
455.753, 1.74
456.19, 1.74
456.627, 1.81
457.063, 1.78
457.5, 1.81
457.937, 1.8
458.373, 1.77
458.81, 1.79
459.246, 1.75
459.683, 1.81
460.119, 1.87
460.556, 1.89
460.992, 1.82
461.428, 1.86
461.864, 1.87
462.301, 1.76
462.737, 1.81
463.173, 1.86
463.609, 1.85
464.045, 1.75
464.481, 1.83
464.917, 1.9
465.352, 1.85
465.788, 1.85
466.224, 1.87
466.66, 1.89
467.095, 1.91
467.531, 1.9
467.966, 1.87
468.402, 1.92
468.837, 1.84
469.273, 1.87
469.708, 1.79
470.143, 1.81
470.578, 1.84
471.014, 1.8
471.449, 1.81
471.884, 1.81
472.319, 1.94
472.754, 1.8
473.189, 1.78
473.624, 1.97
474.059, 1.9
474.493, 1.78
474.928, 1.79
475.363, 1.9
475.797, 1.91
476.232, 1.89
476.667, 1.78
477.101, 1.88
477.536, 1.95
477.97, 1.95
478.404, 1.84
478.839, 1.96
479.273, 1.91
479.707, 1.81
480.141, 1.88
480.575, 1.86
481.009, 1.87
481.444, 1.87
481.877, 1.97
482.311, 1.91
482.745, 1.84
483.179, 2.06
483.613, 1.92
484.047, 1.9
484.48, 1.99
484.914, 1.91
485.347, 2.01
485.781, 1.92
486.214, 1.89
486.648, 1.97
487.081, 1.97
487.515, 2.04
487.948, 1.98
488.381, 1.98
488.814, 1.98
489.247, 1.89
489.68, 1.93
490.113, 1.96
490.546, 1.98
490.979, 1.94
491.412, 1.87
491.845, 1.88
492.278, 2
492.711, 1.9
493.143, 1.91
493.576, 1.94
494.009, 1.9
494.441, 1.83
494.874, 1.84
495.306, 1.87
495.738, 1.83
496.171, 1.79
496.603, 1.89
497.035, 1.92
497.467, 1.87
497.9, 1.87
498.332, 1.91
498.764, 1.79
499.196, 1.77
499.628, 1.81
500.06, 1.76
500.491, 1.75
500.923, 1.77
501.355, 1.82
501.787, 1.76
502.218, 1.76
502.65, 1.7
503.081, 1.71
503.513, 1.72
503.944, 1.68
504.376, 1.74
504.807, 1.76
505.238, 1.69
505.67, 1.67
506.101, 1.65
506.532, 1.63
506.963, 1.64
507.394, 1.65
507.825, 1.6
508.256, 1.58
508.687, 1.54
509.118, 1.55
509.549, 1.51
509.979, 1.52
510.41, 1.51
510.841, 1.5
511.271, 1.46
511.702, 1.48
512.132, 1.44
512.563, 1.42
512.993, 1.4
513.424, 1.39
513.854, 1.35
514.284, 1.36
514.714, 1.33
515.145, 1.34
515.575, 1.3
516.005, 1.3
516.435, 1.27
516.865, 1.23
517.295, 1.22
517.724, 1.2
518.154, 1.2
518.584, 1.15
519.014, 1.16
519.443, 1.15
519.873, 1.13
520.303, 1.09
520.732, 1.07
521.161, 1.05
521.591, 1.05
522.02, 1.04
522.45, 1.02
522.879, 1
523.308, 0.98
523.737, 0.96
524.166, 0.93
524.595, 0.93
525.024, 0.91
525.453, 0.89
525.882, 0.87
526.311, 0.86
526.74, 0.83
527.169, 0.82
527.597, 0.81
528.026, 0.79
528.455, 0.77
528.883, 0.76
529.312, 0.74
529.74, 0.72
530.168, 0.71
530.597, 0.69
531.025, 0.68
531.453, 0.66
531.882, 0.63
532.31, 0.63
532.738, 0.63
533.166, 0.6
533.594, 0.59
534.022, 0.57
534.45, 0.57
534.878, 0.55
535.305, 0.54
535.733, 0.52
536.161, 0.51
536.588, 0.5
537.016, 0.49
537.444, 0.47
537.871, 0.46
538.299, 0.45
538.726, 0.44
539.153, 0.43
539.581, 0.42
540.008, 0.4
540.435, 0.39
540.862, 0.38
541.289, 0.37
541.716, 0.36
542.143, 0.35
542.57, 0.34
542.997, 0.33
543.424, 0.32
543.851, 0.31
544.277, 0.3
544.704, 0.3
545.131, 0.28
545.557, 0.28
545.984, 0.27
546.41, 0.27
546.837, 0.26
547.263, 0.24
547.69, 0.24
548.116, 0.23
548.542, 0.22
548.968, 0.22
549.394, 0.21
549.82, 0.2
550.246, 0.19
550.672, 0.19
551.098, 0.18
551.524, 0.18
551.95, 0.17
552.376, 0.16
552.802, 0.16
553.227, 0.15
553.653, 0.15
554.078, 0.15
554.504, 0.13
554.929, 0.13
555.355, 0.12
555.78, 0.13
556.206, 0.12
556.631, 0.12
557.056, 0.11
557.481, 0.11
557.906, 0.1
558.331, 0.1
558.756, 0.09
559.181, 0.09
559.606, 0.09
560.031, 0.09
560.456, 0.08
560.881, 0.08
561.305, 0.07
561.73, 0.08
562.155, 0.07
562.579, 0.06
563.004, 0.06
563.428, 0.06
563.853, 0.06
564.277, 0.06
564.701, 0.06
565.126, 0.05
565.55, 0.05
565.974, 0.05
566.398, 0.05
566.822, 0.05
567.246, 0.04
567.67, 0.04
568.094, 0.03
568.518, 0.03
568.941, 0.03
569.365, 0.03
569.789, 0.03
570.213, 0.02
570.636, 0.02
571.06, 0.02
571.483, 0.02
571.907, 0.02
572.33, 0.02
572.753, 0.02
573.177, 0.01
573.6, 0.01
574.023, 0.01
574.446, 0.01
574.869, 0.01
575.292, 0.01
575.715, 0.01
576.138, 0.01
576.561, 0.01
576.984, 0.01
577.407, 0.01
577.829, 0.01
578.252, 0.01
578.675, 0.01
579.097, 0.01
579.52, 0.01
579.942, 0.01
580.364, 0.01
580.787, 0.01
581.209, 0.01
581.631, 0
582.054, 0
582.476, 0
582.898, 0
583.32, 0
583.742, 0
584.164, 0
584.586, 0
585.008, 0.01
585.429, 0.01
585.851, 0.01
586.273, 0.01
586.694, 0
587.116, 0
587.538, 0
587.959, 0
588.38, 0
588.802, 0
589.223, 0
589.644, 0
590.066, 0
590.487, 0
590.908, 0
591.329, 0
591.75, 0.01
592.171, 0
592.592, 0.01
593.013, 0.01
593.434, 0
593.854, 0
594.275, 0
594.696, 0
595.116, 0
595.537, 0
595.957, 0
596.378, 0
596.798, 0
597.218, 0
597.639, 0
598.059, 0
598.479, 0
598.899, 0
599.319, 0
599.739, 0
600.159, 0
600.579, 0
600.999, 0
601.419, 0
601.839, 0
602.259, 0
602.678, 0
603.098, 0
603.517, 0
603.937, 0
604.356, 0
604.776, 0
605.195, 0
605.614, 0
606.034, 0
606.453, 0
606.872, 0
607.291, 0
607.71, 0
608.129, 0
608.548, 0
608.967, 0
609.386, 0
609.805, 0
610.223, 0
610.642, 0
611.061, 0
611.479, 0
611.898, 0
612.316, 0
612.735, 0
613.153, 0
613.571, 0
613.99, 0
614.408, 0
614.826, 0
615.244, 0
615.662, 0
616.08, 0
616.498, 0
616.916, 0
617.334, 0
617.752, 0
618.169, 0
618.587, 0
619.005, 0
619.422, 0
619.84, 0
620.257, 0
620.675, 0
621.092, 0
621.509, 0
621.927, 0
622.344, 0
622.761, 0
623.178, 0
623.595, 0
624.012, 0
624.429, 0
624.846, 0
625.263, 0
625.68, 0
626.097, 0
626.513, 0
626.93, 0
627.346, 0
627.763, 0
628.179, 0
628.596, 0
629.012, 0
629.429, 0
629.845, 0
630.261, 0
630.677, 0
631.093, 0
631.509, 0
631.925, 0
632.341, 0
632.757, 0
633.173, 0
633.589, 0
634.005, 0
634.42, 0
634.836, 0
635.252, 0
635.667, 0.01
636.083, 0
636.498, 0
636.913, 0
637.329, 0
637.744, 0
638.159, 0
638.574, 0
638.99, 0
639.405, 0
639.82, 0
640.235, 0
640.65, 0
641.064, 0
641.479, 0
641.894, 0
642.309, 0
642.723, 0
643.138, 0
643.552, 0
643.967, 0
644.381, 0
644.796, 0
645.21, 0
645.624, 0
646.038, 0
646.453, 0
646.867, 0
647.281, 0
647.695, 0
648.109, 0
648.523, 0
648.936, 0
649.35, 0
649.764, 0
650.178, 0
650.591, 0
651.005, 0
651.418, 0
651.832, 0
652.245, 0
652.659, 0
653.072, 0
653.485, 0
653.898, 0
654.312, 0
654.725, 0
655.138, 0
655.551, 0
655.964, 0
656.377, 0
656.789, 0
657.202, 0
657.615, 0
658.028, 0
658.44, 0
658.853, 0
659.265, 0
659.678, 0
660.09, 0
660.503, 0
660.915, 0
661.327, 0
661.739, 0
662.152, 0
662.564, 0
662.976, 0
663.388, 0
663.8, 0
664.211, 0
664.623, 0
665.035, 0
665.447, 0
665.858, 0
666.27, 0
666.682, 0
667.093, 0
667.505, 0
667.916, 0
668.327, 0
668.739, 0
669.15, 0
669.561, 0
669.972, 0
670.383, 0
670.794, 0
671.205, 0
671.616, 0
672.027, 0
672.438, 0
672.849, 0
673.259, 0
673.67, 0
674.08, 0
674.491, 0
674.901, 0
675.312, 0
675.722, 0
676.133, 0
676.543, 0
676.953, 0
677.363, 0
677.773, 0
678.183, 0
678.593, 0
679.003, 0
679.413, 0
679.823, 0
680.233, 0
680.643, 0
681.052, 0
681.462, 0
681.872, 0
682.281, 0
682.691, 0
683.1, 0
683.509, 0
683.919, 0
684.328, 0
684.737, 0
685.146, 0
685.555, 0
685.964, 0
686.373, 0
686.782, 0
687.191, 0
687.6, 0
688.009, 0
688.417, 0
688.826, 0
689.235, 0
689.643, 0
690.052, 0
690.46, 0
690.869, 0
691.277, 0
691.685, 0
692.093, 0
692.502, 0
692.91, 0
693.318, 0
693.726, 0
694.134, 0
694.542, 0
694.949, 0
695.357, 0
695.765, 0
696.173, 0.01
696.58, 0
696.988, 0
697.395, 0
697.803, 0
698.21, 0
698.618, 0
699.025, 0
699.432, 0
699.839, 0
700.247, 0
700.654, 0
701.061, 0
701.468, 0
701.875, 0
702.281, 0
702.688, 0
703.095, 0
703.502, 0
703.908, 0
704.315, 0
704.722, 0
705.128, 0
705.534, 0.01
705.941, 0.01
706.347, 0
706.753, 0
707.16, 0
707.566, 0
707.972, 0
708.378, 0
708.784, 0
709.19, 0
709.596, 0
710.002, 0
710.407, 0.01
710.813, 0
711.219, 0
711.625, 0.01
712.03, 0
712.436, 0
712.841, 0
713.246, 0
713.652, 0.01
714.057, 0
714.462, 0
714.868, 0
715.273, 0
715.678, 0
716.083, 0
716.488, 0.01
716.893, 0
717.297, 0
717.702, 0
718.107, 0.01
718.512, 0
718.916, 0
719.321, 0
719.725, 0
720.13, 0
720.534, 0
720.939, 0.01
721.343, 0
721.747, 0
722.151, 0
722.556, 0
722.96, 0
723.364, 0
723.768, 0
724.172, 0
724.576, 0
724.979, 0
725.383, 0
725.787, 0
726.19, 0
726.594, 0
726.998, 0.01
727.401, 0
727.805, 0
728.208, 0.01
728.611, 0
729.014, 0
729.418, 0
729.821, 0
730.224, 0
730.627, 0
731.03, 0
731.433, 0
731.836, 0.01
732.239, 0
732.641, 0
733.044, 0
733.447, 0
733.849, 0
734.252, 0
734.654, 0
735.057, 0
735.459, 0
735.862, 0.01
736.264, 0
736.666, 0
737.068, 0
737.47, 0
737.872, 0
738.274, 0
738.676, 0
739.078, 0
739.48, 0.01
739.882, 0.01
740.284, 0
740.685, 0
741.087, 0
741.488, 0
741.89, 0
742.291, 0
742.693, 0
743.094, 0
743.495, 0
743.897, 0
744.298, 0
744.699, 0
745.1, 0
745.501, 0
745.902, 0
746.303, 0
746.704, 0
747.105, 0
747.505, 0.01
747.906, 0
748.307, 0
748.707, 0
749.108, 0
749.508, 0
749.908, 0
750.309, 0
750.709, 0
751.109, 0.01
751.51, 0
751.91, 0
752.31, 0
752.71, 0
753.11, 0
753.51, 0
753.909, 0
754.309, 0
754.709, 0
755.109, 0
755.508, 0
755.908, 0
756.307, 0
756.707, 0
757.106, 0
757.505, 0
757.905, 0.01
758.304, 0
758.703, 0
759.102, 0
759.501, 0
759.9, 0
760.299, 0
760.698, 0.01
761.097, 0
761.496, 0
761.895, 0
762.293, 0
762.692, 0
763.09, 0
763.489, 0
763.887, 0
764.286, 0
764.684, 0.01
765.082, 0
765.481, 0.01
765.879, 0
766.277, 0
766.675, 0
767.073, 0.01
767.471, 0.01
767.869, 0.01
768.267, 0
768.664, 0
769.062, 0
769.46, 0
769.857, 0
770.255, 0.01
770.653, 0.01
771.05, 0.01
771.447, 0.01
771.845, 0
772.242, 0.01
772.639, 0
773.036, 0
773.433, 0
773.831, 0
774.228, 0.01
774.624, 0
775.021, 0.01
775.418, 0.01
775.815, 0
776.212, 0.01
776.608, 0
777.005, 0
777.401, 0.01
777.798, 0.01
778.194, 0.01
778.591, 0
778.987, 0
779.383, 0
779.78, 0.01
780.176, 0
780.572, 0.01
780.968, 0.01
781.364, 0.01
781.76, 0
782.156, 0.01
782.551, 0.01
782.947, 0.01
783.343, 0
783.739, 0
784.134, 0.01
784.53, 0.01
784.925, 0
785.321, 0
785.716, 0.01
786.111, 0.01
786.507, 0.01
786.902, 0.01
787.297, 0
787.692, 0
788.087, 0
788.482, 0.01
788.877, 0.01
789.272, 0
789.667, 0.01
790.061, 0
790.456, 0
790.851, 0.01
791.245, 0
791.64, 0.01
792.034, 0
792.429, 0.01
792.823, 0.01
793.217, 0.01
793.612, 0.01
794.006, 0
794.4, 0.01
794.794, 0
795.188, 0.01
795.582, 0.01
795.976, 0
796.37, 0
796.763, 0.01
797.157, 0
797.551, 0.01
797.944, 0.01
798.338, 0.01
798.731, 0
799.125, 0.01
799.518, 0.01
799.912, 0
800.305, 0.01
800.698, 0.01
801.091, 0.01
801.484, 0
801.877, 0.01
802.27, 0
802.663, 0.01
803.056, 0.01
803.449, 0.01
803.842, 0.01
804.235, 0.01
804.627, 0
805.02, 0
805.412, 0.01
805.805, 0.01
806.197, 0.02
806.59, 0.02
806.982, 0.01
807.374, 0.01
807.766, 0.01
808.159, 0.02
808.551, 0.01
808.943, 0.01
809.335, 0.02
809.727, 0.02
810.118, 0.02
810.51, 0.01
810.902, 0.01
811.294, 0.02
811.685, 0.01
812.077, 0.02
812.468, 0.02
812.86, 0.02
813.251, 0.02
813.643, 0.02
814.034, 0.02
814.425, 0.02
814.816, 0.02
815.207, 0.03
815.598, 0.02
815.989, 0.02
816.38, 0.02
816.771, 0.02
817.162, 0.03
817.553, 0.02
817.944, 0.02
818.334, 0.03
818.725, 0.03
819.115, 0.03
819.506, 0.02
819.896, 0.03
820.287, 0.03
820.677, 0.03
821.067, 0.03
821.457, 0.03
821.848, 0.02
822.238, 0.03
822.628, 0.03
823.018, 0.02
823.408, 0.03
823.797, 0.03
824.187, 0.04
824.577, 0.04
824.967, 0.03
825.356, 0.03
825.746, 0.03
826.135, 0.04
826.525, 0.03
826.914, 0.04
827.304, 0.04
827.693, 0.03
828.082, 0.03
828.471, 0.04
828.86, 0.04
829.249, 0.03
829.638, 0.04
830.027, 0.04
830.416, 0.03
830.805, 0.04
831.194, 0.03
831.582, 0.04
831.971, 0.04
832.36, 0.04
832.748, 0.04
833.137, 0.04
833.525, 0.04
833.914, 0.05
834.302, 0.04
834.69, 0.04
835.078, 0.03
835.466, 0.04
835.854, 0.03
836.243, 0.05
836.63, 0.04
837.018, 0.05
837.406, 0.05
837.794, 0.04
838.182, 0.04
838.569, 0.05
838.957, 0.05
839.345, 0.04
839.732, 0.05
840.12, 0.04
840.507, 0.04
840.894, 0.06
841.282, 0.05
841.669, 0.05
842.056, 0.06
842.443, 0.05
842.83, 0.05
843.217, 0.06
843.604, 0.06
843.991, 0.06
844.378, 0.06
844.764, 0.05
845.151, 0.06
845.538, 0.05
845.924, 0.05
846.311, 0.05
846.697, 0.05
847.084, 0.06
847.47, 0.06
847.856, 0.05
848.242, 0.06
848.629, 0.07
849.015, 0.05
849.401, 0.06
849.787, 0.05
850.173, 0.06
850.559, 0.05
850.944, 0.05
851.33, 0.06
851.716, 0.05
852.102, 0.05
852.487, 0.06
852.873, 0.07
853.258, 0.06
853.644, 0.06
854.029, 0.06
854.414, 0.04
854.799, 0.05
855.185, 0.06
855.57, 0.05
855.955, 0.05
856.34, 0.06
856.725, 0.06
857.11, 0.06
857.495, 0.07
857.879, 0.06
858.264, 0.06
858.649, 0.06
859.033, 0.05
859.418, 0.05
859.802, 0.05
860.187, 0.06
860.571, 0.06
860.955, 0.05
861.34, 0.06
861.724, 0.06
862.108, 0.05
862.492, 0.05
862.876, 0.06
863.26, 0.05
863.644, 0.06
864.028, 0.06
864.412, 0.05
864.795, 0.05
865.179, 0.07
865.563, 0.06
865.946, 0.05
866.33, 0.06
866.713, 0.04
867.097, 0.06
867.48, 0.07
867.863, 0.07
868.246, 0.06
868.629, 0.06
869.013, 0.06
869.396, 0.04
869.779, 0.05
870.161, 0.06
870.544, 0.05
870.927, 0.05
871.31, 0.05
871.693, 0.04
872.075, 0.05
872.458, 0.06
872.84, 0.05
873.223, 0.05
873.605, 0.05
873.987, 0.05
874.37, 0.05
874.752, 0.05
875.134, 0.05
875.516, 0.05
875.898, 0.07
876.28, 0.06
876.662, 0.07
877.044, 0.04
877.426, 0.06
877.807, 0.05
878.189, 0.06
878.571, 0.06
878.952, 0.07
879.334, 0.07
879.715, 0.04
880.097, 0.05
880.478, 0.05
880.859, 0.06
881.24, 0.07
881.622, 0.05
882.003, 0.05
882.384, 0.05
882.765, 0.07
883.146, 0.06
883.526, 0.06
883.907, 0.04
884.288, 0.05
884.669, 0.07
885.049, 0.06
885.43, 0.06
885.81, 0.07
886.191, 0.05
886.571, 0.06
886.952, 0.05
887.332, 0.07
887.712, 0.07
888.092, 0.06
888.472, 0.06
888.852, 0.06
889.232, 0.07
889.612, 0.07
889.992, 0.06
890.372, 0.07
890.752, 0.06
891.131, 0.06
891.511, 0.06
891.89, 0.07
892.27, 0.07
892.649, 0.08
893.029, 0.05
893.408, 0.08
893.787, 0.08
894.167, 0.08
894.546, 0.07
894.925, 0.06
895.304, 0.07
895.683, 0.06
896.062, 0.06
896.441, 0.07
896.819, 0.08
897.198, 0.07
897.577, 0.07
897.955, 0.06
898.334, 0.06
898.712, 0.07
899.091, 0.08
899.469, 0.06
899.848, 0.07
900.226, 0.05
900.604, 0.07
900.982, 0.08
901.36, 0.1
901.738, 0.1
902.116, 0.09
902.494, 0.08
902.872, 0.08
903.25, 0.09
903.628, 0.11
904.005, 0.06
904.383, 0.1
904.76, 0.09
905.138, 0.07
905.515, 0.1
905.893, 0.12
906.27, 0.13
906.647, 0.07
907.024, 0.1
907.402, 0.08
907.779, 0.08
908.156, 0.08
908.533, 0.09
908.91, 0.1
909.286, 0.1
909.663, 0.11
910.04, 0.1
910.417, 0.1
910.793, 0.07
911.17, 0.09
911.546, 0.08
911.923, 0.09
912.299, 0.08
912.675, 0.07
913.051, 0.1
913.428, 0.12
913.804, 0.1
914.18, 0.1
914.556, 0.1
914.932, 0.07
915.308, 0.1
915.683, 0.1
916.059, 0.08
916.435, 0.1
916.811, 0.07
917.186, 0.08
917.562, 0.06
917.937, 0.07
918.313, 0.1
918.688, 0.07
919.063, 0.1
919.438, 0.11
919.814, 0.08
920.189, 0.07
920.564, 0.08
920.939, 0.1
921.314, 0.11
921.689, 0.09
922.063, 0.1
922.438, 0.1
922.813, 0.09
923.187, 0.08
923.562, 0.07
923.936, 0.08
924.311, 0.09
924.685, 0.12
925.06, 0.08
925.434, 0.03
925.808, 0.07
926.182, 0.08
926.556, 0.09
926.93, 0.11
927.304, 0.09
927.678, 0.08
928.052, 0.05
928.426, 0.04
928.8, 0.09
929.173, 0.08
929.547, 0.06
929.92, 0.07
930.294, 0.04
930.667, 0.06
931.041, 0.05
931.414, 0.05
931.787, 0.08
932.161, 0.07
932.534, 0.05
932.907, 0.08
933.28, 0.07
933.653, 0.06
934.026, 0.11
934.398, 0.14
934.771, 0.08
935.144, 0.09
935.517, 0.07
935.889, 0.06
936.262, 0.06
936.634, 0.05
937.007, 0.05
937.379, 0.07
937.751, 0.02
938.123, 0.09
938.496, 0.07
938.868, 0.03
939.24, 0.07
939.612, 0.08
939.984, 0.06
940.355, 0.07
940.727, 0.03
941.099, 0.09
941.471, 0.1
941.842, 0.05
942.214, 0.08
942.585, 0.07
942.957, 0.04
943.328, 0.11
943.7, 0.05
944.071, 0.11
944.442, 0.07
944.813, 0.07
945.184, 0.03
945.555, 0.03
945.926, 0.08
946.297, 0.07
946.668, 0.03
947.039, 0.1
947.409, 0.02
947.78, 0.11
948.151, 0.04
948.521, 0.07
948.892, 0.14
949.262, 0.06
949.633, 0.07
950.003, 0.09
950.373, 0.04
950.743, 0.1
951.113, 0.08
951.483, 0.03
951.853, 0.04
952.223, 0.07
952.593, 0.08
952.963, 0.1
953.333, 0.07
953.702, 0.11
954.072, 0.1
954.442, 0.03
954.811, 0
955.181, 0.11
955.55, 0.1
955.919, 0.11
956.289, 0.05
956.658, 0.01
957.027, 0.05
957.396, 0.03
957.765, 0.07
958.134, 0.04
958.503, 0.09
958.872, 0.09
959.24, 0.03
959.609, 0.04
959.978, 0.16
960.346, 0.11
960.715, -0.03
961.083, 0.11
961.452, 0.1
961.82, 0.07
962.188, 0.15
962.557, 0.03
962.925, 0.09
963.293, 0.08
963.661, 0.1
964.029, 0.04
964.397, 0.1
964.765, 0.08
965.133, 0.18
965.5, 0.06
965.868, 0.08
966.236, -0.01
966.603, 0.08
966.971, 0.04
967.338, 0.1
967.706, 0.08
968.073, -0.01
968.44, 0.07
968.807, 0.22
969.174, 0.14
969.542, 0.18
969.909, 0.16
970.275, -0.05
970.642, 0.15
971.009, 0.2
971.376, 0.04
971.743, 0.01
972.109, -0.03
972.476, -0.02
972.842, 0.11
973.209, 0.09
973.575, 0.01
973.942, 0.01
974.308, -0.01
974.674, 0.04
975.04, 0.03
975.406, 0.07
975.772, 0.04
976.138, 0.09
976.504, 0.16
976.87, -0.03
977.236, 0.12
977.602, 0.08
977.967, 0.11
978.333, -0.06
978.698, 0.05
979.064, -0.03
979.429, 0.11
979.795, 0.1
980.16, 0.06
980.525, 0.07
980.89, 0.14
981.255, -0.02
981.621, 0.07
981.986, 0.03
982.35, 0.01
982.715, -0.06
983.08, 0.13
983.445, 0.14
983.81, 0.04
984.174, 0.02
984.539, 0.1
984.903, 0.05
985.268, 0.07
985.632, 0.08
985.996, 0.03
986.361, 0.12
986.725, -0.07
987.089, 0.02
987.453, 0.16
987.817, 0.12
988.181, 0.11
988.545, -0.01
988.909, 0.1
989.272, 0.07
989.636, 0
990, -0.12
990.363, -0.02
990.727, 0.12
991.09, 0.22
991.454, 0.06
991.817, 0.14
992.18, -0.03
992.543, 0.12
992.907, 0.2
993.27, 0.07
993.633, 0.01
993.996, 0.22
994.359, 0.1
994.721, -0.02
995.084, 0.17
995.447, 0
995.81, -0.07
996.172, 0.03
996.535, -0.07
996.897, 0.19
997.259, -0.01
997.622, 0.08
997.984, -0.07
998.346, -0.01
998.708, 0.2
999.071, -0.02
999.433, 0.05
999.795, -0.09
1000.156, -0.05
1000.518, 0.18
1000.88, 0.04
1001.242, 0.16
1001.603, 0.04
1001.965, 0.18
1002.327, 0.14
1002.688, 0.22
1003.049, 0.01
1003.411, 0.04
1003.772, 0.01
1004.133, 0.1
1004.495, 0.06
1004.856, -0.01
1005.217, 0.01
1005.578, 0.07
1005.939, 0.12
1006.299, 0.07
1006.66, 0.14
1007.021, 0
1007.382, -0.05
1007.742, 0.15
1008.103, 0.02
1008.463, 0.13
1008.824, 0.05
1009.184, -0.04
1009.544, 0.16
1009.904, -0.1
1010.265, 0.04
1010.625, 0.13
1010.985, 0.26
1011.345, 0.29
1011.705, 0.03
1012.065, 0.02
1012.424, -0.1
1012.784, 0.17
1013.144, 0.05
1013.503, 0.05
1013.863, 0.14
1014.222, 0.15
1014.582, 0.29
1014.941, -0.08
1015.3, 0.03
1015.66, 0.11
1016.019, 0.19
1016.378, 0.12
1016.737, -0.03
1017.096, 0.22
1017.455, -0.06
1017.814, 0.03
1018.173, 0.04
1018.531, 0.07
1018.89, 0.01
1019.249, 0.23
1019.607, -0.06
1019.966, -0.05
1020.324, 0.15
1020.682, 0.02
1021.041, 0.08
1021.399, 0.13
1021.757, 0.17
1022.115, 0.02
1022.473, 0.11
1022.831, 0.12
1023.189, 0.2
1023.547, 0.03
1023.905, 0.27
1024.263, 0.2
1024.62, -0.08
1024.978, 0.13
1025.335, 0.06
1025.693, 0.08
1026.05, 0.08
1026.408, 0.07
1026.765, 0.08
1027.122, -0.24
1027.479, 0.39
1027.837, 0.16
1028.194, 0.43
1028.551, 0.16
1028.908, 0.04
1029.264, 0.07
1029.621, 0.09
1029.978, 0.09
1030.335, 0.04
1030.691, 0.14
1031.048, 0.03
1031.404, 0.16
1031.761, 0.09
1032.117, 0.06
1032.473, 0.05
1032.83, -0.11
1033.186, 0.14
1033.542, 0.21
1033.898, 0.2
1034.254, -0.02
1034.61, -0.02
1034.966, -0.02
