lambda, intensity
188.96, -16.24
189.424, -16.24
189.887, -16.24
190.351, -63.05
190.815, -34.96
191.279, -56.03
191.742, -70.07
192.206, -37.3
192.669, -79.43
193.133, -51.35
193.596, 21.21
194.06, -27.94
194.523, -53.69
194.987, 9.51
195.45, 18.87
195.913, 42.28
196.376, 91.43
196.84, 18.87
197.303, 49.3
197.766, 53.98
198.229, 70.36
198.692, 110.15
199.155, 110.15
199.618, 234.2
200.081, 447.19
200.543, 426.12
201.006, 442.51
201.469, 456.55
201.932, 498.68
202.394, 484.64
202.857, 515.06
203.32, 388.68
203.782, 503.36
204.245, 412.08
204.707, 508.04
205.169, 494
205.632, 501.02
206.094, 479.96
206.556, 479.96
207.019, 482.3
207.481, 582.94
207.943, 538.47
208.405, 486.98
208.867, 505.7
209.329, 538.47
209.791, 524.43
210.253, 435.49
210.715, 522.09
211.177, 522.09
211.639, 435.49
212.1, 508.04
212.562, 515.06
213.024, 470.59
213.485, 461.23
213.947, 538.47
214.408, 538.47
214.87, 517.4
215.331, 435.49
215.793, 458.89
216.254, 472.93
216.715, 505.7
217.177, 529.11
217.638, 472.93
218.099, 423.78
218.56, 430.8
219.021, 484.64
219.482, 501.02
219.944, 510.38
220.404, 421.44
220.865, 465.91
221.326, 489.32
221.787, 454.21
222.248, 412.08
222.709, 442.51
223.169, 536.13
223.63, 510.38
224.091, 486.98
224.551, 470.59
225.012, 482.3
225.472, 510.38
225.933, 486.98
226.393, 461.23
226.854, 440.17
227.314, 440.17
227.774, 444.85
228.234, 428.46
228.695, 477.62
229.155, 465.91
229.615, 470.59
230.075, 458.89
230.535, 376.97
230.995, 475.28
231.455, 414.42
231.915, 468.25
232.375, 376.97
232.834, 501.02
233.294, 461.23
233.754, 468.25
234.214, 484.64
234.673, 510.38
235.133, 472.93
235.592, 477.62
236.052, 409.74
236.511, 489.32
236.971, 430.8
237.43, 472.93
237.889, 451.87
238.349, 442.51
238.808, 482.3
239.267, 465.91
239.726, 430.8
240.185, 454.21
240.644, 477.62
241.103, 515.06
241.562, 465.91
242.021, 475.28
242.48, 383.99
242.939, 433.15
243.398, 456.55
243.857, 540.81
244.315, 484.64
244.774, 451.87
245.233, 458.89
245.691, 451.87
246.15, 447.19
246.608, 489.32
247.067, 454.21
247.525, 465.91
247.983, 501.02
248.442, 484.64
248.9, 491.66
249.358, 421.44
249.816, 437.83
250.274, 491.66
250.733, 489.32
251.191, 472.93
251.649, 475.28
252.107, 461.23
252.564, 501.02
253.022, 468.25
253.48, 463.57
253.938, 442.51
254.396, 552.51
254.853, 524.43
255.311, 526.77
255.769, 449.53
256.226, 458.89
256.684, 503.36
257.141, 517.4
257.599, 501.02
258.056, 386.33
258.513, 494
258.971, 531.45
259.428, 477.62
259.885, 529.11
260.342, 491.66
260.799, 522.09
261.256, 531.45
261.714, 475.28
262.171, 482.3
262.627, 454.21
263.084, 489.32
263.541, 479.96
263.998, 517.4
264.455, 444.85
264.912, 486.98
265.368, 472.93
265.825, 519.75
266.281, 538.47
266.738, 486.98
267.194, 465.91
267.651, 486.98
268.107, 515.06
268.564, 449.53
269.02, 475.28
269.476, 456.55
269.933, 456.55
270.389, 484.64
270.845, 367.61
271.301, 465.91
271.757, 456.55
272.213, 428.46
272.669, 484.64
273.125, 468.25
273.581, 451.87
274.037, 451.87
274.492, 489.32
274.948, 447.19
275.404, 414.42
275.86, 416.76
276.315, 543.15
276.771, 524.43
277.226, 456.55
277.682, 458.89
278.137, 454.21
278.593, 517.4
279.048, 461.23
279.503, 461.23
279.958, 442.51
280.414, 482.3
280.869, 430.8
281.324, 435.49
281.779, 491.66
282.234, 505.7
282.689, 529.11
283.144, 433.15
283.599, 412.08
284.054, 440.17
284.508, 484.64
284.963, 468.25
285.418, 482.3
285.873, 479.96
286.327, 423.78
286.782, 437.83
287.236, 447.19
287.691, 501.02
288.145, 477.62
288.6, 496.34
289.054, 456.55
289.508, 489.32
289.963, 472.93
290.417, 461.23
290.871, 447.19
291.325, 489.32
291.779, 529.11
292.233, 407.4
292.687, 426.12
293.141, 498.68
293.595, 510.38
294.049, 496.34
294.503, 524.43
294.957, 454.21
295.41, 468.25
295.864, 458.89
296.318, 494
296.771, 512.72
297.225, 440.17
297.678, 517.4
298.132, 498.68
298.585, 405.06
299.039, 475.28
299.492, 522.09
299.945, 393.36
300.398, 524.43
300.852, 449.53
301.305, 470.59
301.758, 498.68
302.211, 503.36
302.664, 489.32
303.117, 470.59
303.57, 463.57
304.023, 515.06
304.476, 484.64
304.928, 435.49
305.381, 482.3
305.834, 557.19
306.286, 456.55
306.739, 442.51
307.192, 435.49
307.644, 505.7
308.097, 449.53
308.549, 437.83
309.001, 430.8
309.454, 458.89
309.906, 540.81
310.358, 526.77
310.81, 508.04
311.263, 428.46
311.715, 475.28
312.167, 479.96
312.619, 463.57
313.071, 463.57
313.523, 475.28
313.975, 409.74
314.426, 458.89
314.878, 454.21
315.33, 374.63
315.782, 437.83
316.233, 531.45
316.685, 479.96
317.136, 491.66
317.588, 451.87
318.039, 484.64
318.491, 522.09
318.942, 510.38
319.393, 463.57
319.845, 444.85
320.296, 419.1
320.747, 456.55
321.198, 529.11
321.649, 505.7
322.101, 416.76
322.552, 494
323.003, 494
323.453, 515.06
323.904, 550.17
324.355, 496.34
324.806, 512.72
325.257, 489.32
325.707, 489.32
326.158, 475.28
326.609, 503.36
327.059, 494
327.51, 468.25
327.96, 524.43
328.411, 531.45
328.861, 470.59
329.311, 540.81
329.762, 447.19
330.212, 409.74
330.662, 494
331.112, 575.92
331.562, 489.32
332.012, 522.09
332.462, 522.09
332.912, 517.4
333.362, 505.7
333.812, 547.83
334.262, 526.77
334.712, 526.77
335.161, 524.43
335.611, 559.53
336.061, 510.38
336.51, 589.96
336.96, 486.98
337.409, 601.66
337.859, 592.3
338.308, 566.56
338.758, 625.07
339.207, 582.94
339.656, 669.54
340.105, 533.79
340.555, 594.64
341.004, 653.16
341.453, 589.96
341.902, 632.09
342.351, 634.43
342.8, 585.28
343.249, 667.2
343.698, 756.14
344.146, 697.63
344.595, 718.69
345.044, 618.05
345.493, 777.2
345.941, 704.65
346.39, 753.8
346.838, 779.54
347.287, 816.99
347.735, 756.14
348.184, 767.84
348.632, 795.93
349.08, 819.33
349.529, 781.89
349.977, 760.82
350.425, 835.72
350.873, 849.76
351.321, 838.06
351.769, 828.7
352.217, 894.23
352.665, 880.19
353.113, 873.17
353.561, 1006.58
354.009, 950.4
354.456, 917.64
354.904, 891.89
355.352, 936.36
355.799, 964.45
356.247, 945.72
356.694, 1102.54
357.142, 978.49
357.589, 1046.37
358.037, 1018.28
358.484, 1046.37
358.931, 999.56
359.379, 1067.43
359.826, 1121.26
360.273, 1079.13
360.72, 1055.73
361.167, 1154.03
361.614, 1154.03
362.061, 1168.07
362.508, 1207.86
362.955, 1182.12
363.402, 1184.46
363.848, 1217.22
364.295, 1242.97
364.742, 1191.48
365.188, 1254.67
365.635, 1390.42
366.082, 1374.04
366.528, 1294.46
366.975, 1320.21
367.421, 1397.45
367.867, 1306.17
368.314, 1439.58
368.76, 1474.68
369.206, 1481.71
369.652, 1418.51
370.098, 1479.36
370.545, 1547.24
370.991, 1610.43
371.437, 1465.32
371.882, 1643.2
372.328, 1589.37
372.774, 1736.82
373.22, 1561.28
373.666, 1624.48
374.111, 1647.88
374.557, 1762.57
375.003, 1643.2
375.448, 1664.27
375.894, 1732.14
376.339, 1729.8
376.785, 1797.68
377.23, 1807.04
377.675, 1809.38
378.121, 1809.38
378.566, 1837.47
379.011, 1809.38
379.456, 1842.15
379.901, 1928.75
380.346, 1839.81
380.791, 1956.83
381.236, 1919.39
381.681, 1977.9
382.126, 2005.99
382.571, 1942.79
383.016, 1963.86
383.461, 2010.67
383.905, 2031.73
384.35, 2162.8
384.794, 1989.6
385.239, 2240.04
385.683, 2160.46
386.128, 2169.82
386.572, 2258.76
387.017, 2233.02
387.461, 2284.51
387.905, 2272.81
388.349, 2319.62
388.794, 2326.64
389.238, 2275.15
389.682, 2413.24
390.126, 2389.83
390.57, 2520.9
391.014, 2504.52
391.457, 2539.63
391.901, 2516.22
392.345, 2584.1
392.789, 2602.82
393.233, 2602.82
393.676, 2453.03
394.12, 2577.08
394.563, 2563.03
395.007, 2675.38
395.45, 2670.7
395.894, 2600.48
396.337, 2757.3
396.78, 2722.19
397.224, 2820.49
397.667, 2640.27
398.11, 2806.45
398.553, 2911.77
398.996, 2951.56
399.439, 3056.89
399.882, 3035.82
400.325, 3077.95
400.768, 3031.14
401.211, 2972.63
401.654, 3192.64
402.096, 3164.55
402.539, 3115.4
402.982, 3120.08
403.424, 3244.13
403.867, 3199.66
404.309, 3288.6
404.752, 3279.24
405.194, 3290.94
405.637, 3431.37
406.079, 3349.45
406.521, 3464.14
406.963, 3510.95
407.406, 3576.48
407.848, 3543.72
408.29, 3620.96
408.732, 3733.3
409.174, 3761.39
409.616, 3761.39
410.058, 3642.02
410.499, 3864.37
410.941, 3934.59
411.383, 3962.67
411.825, 3990.76
412.266, 3939.27
412.708, 4079.7
413.15, 4072.68
413.591, 4180.34
414.033, 4058.64
414.474, 4206.09
414.915, 4135.87
415.357, 4318.43
415.798, 4372.27
416.239, 4325.46
416.68, 4334.82
417.121, 4627.39
417.563, 4447.16
418.004, 4655.47
418.445, 4599.3
418.885, 4791.22
419.326, 4676.54
419.767, 4805.27
420.208, 4826.33
420.649, 4924.63
421.089, 5062.73
421.53, 5186.77
421.971, 5111.88
422.411, 4952.72
422.852, 5137.62
423.292, 5259.33
423.733, 5259.33
424.173, 5343.59
424.613, 5296.78
425.054, 5366.99
425.494, 5558.92
425.934, 5507.43
426.374, 5427.85
426.814, 5596.37
427.254, 5706.37
427.694, 5624.45
428.134, 5874.89
428.574, 5900.64
429.014, 5750.84
429.454, 5959.15
429.893, 5867.87
430.333, 5804.67
430.773, 6048.09
431.212, 6094.9
431.652, 6202.57
432.091, 6406.19
432.531, 6265.76
432.97, 6350.02
433.41, 6490.45
433.849, 6361.72
434.288, 6408.53
434.727, 6740.89
435.167, 6445.98
435.606, 6581.73
436.045, 6787.7
436.484, 6801.74
436.923, 7005.37
437.362, 7007.71
437.801, 7056.86
438.239, 7145.8
438.678, 7162.19
439.117, 7204.32
439.556, 7405.6
439.994, 7487.52
440.433, 7461.77
440.871, 7604.55
441.31, 7461.77
441.748, 7515.61
442.187, 7740.3
442.625, 7707.53
443.063, 7597.53
443.502, 7651.36
443.94, 7773.07
444.378, 7768.38
444.816, 7775.41
445.254, 7957.97
445.692, 7943.92
446.13, 8187.34
446.568, 7964.99
447.006, 8079.68
447.444, 8189.68
447.881, 8262.24
448.319, 8369.9
448.757, 8536.08
449.194, 8405.01
449.632, 8400.33
450.07, 8435.44
450.507, 8517.36
450.944, 8578.21
451.382, 8634.38
451.819, 8753.75
452.256, 8779.5
452.694, 8938.65
453.131, 8978.44
453.568, 8926.95
454.005, 9144.62
454.442, 9055.68
454.879, 9294.41
455.316, 9528.47
455.753, 9320.16
456.19, 9682.94
456.627, 9605.7
457.063, 9650.18
457.5, 9640.81
457.937, 9638.47
458.373, 9713.37
458.81, 9537.83
459.246, 10052.75
459.683, 9720.39
460.119, 10031.68
460.556, 10368.72
460.992, 10146.37
461.428, 10300.84
461.864, 10635.54
462.301, 10326.59
462.737, 10658.95
463.173, 10857.89
463.609, 11042.79
464.045, 10885.98
464.481, 11007.69
464.917, 11005.35
465.352, 11068.54
465.788, 11187.91
466.224, 11377.49
466.66, 11550.69
467.095, 11609.2
467.531, 11618.57
467.966, 11794.11
468.402, 12297.32
468.837, 12412.01
469.273, 12529.03
469.708, 12533.72
470.143, 12524.35
470.578, 13228.85
471.014, 13006.5
471.449, 13050.97
471.884, 13568.23
472.319, 13596.32
472.754, 13643.13
473.189, 13856.12
473.624, 14537.21
474.059, 14459.98
474.493, 15040.43
474.928, 15045.11
475.363, 15356.4
475.797, 15702.8
476.232, 15709.82
476.667, 16304.32
477.101, 16409.64
477.536, 16894.13
477.97, 17104.78
478.404, 16966.69
478.839, 17301.39
479.273, 17458.2
479.707, 18223.56
480.141, 18403.78
480.575, 18630.81
481.009, 18857.84
481.444, 18712.73
481.877, 19590.43
482.311, 19695.75
482.745, 19939.17
483.179, 20531.33
483.613, 20683.46
484.047, 21036.88
484.48, 21207.74
484.914, 21507.33
485.347, 21235.83
485.781, 21734.36
486.214, 21928.63
486.648, 22047.99
487.081, 22076.08
487.515, 22899.95
487.948, 22918.67
488.381, 22909.31
488.814, 23510.83
489.247, 23829.14
489.68, 23932.12
490.113, 24550.03
490.546, 24100.64
490.979, 24580.45
491.412, 24613.22
491.845, 24557.05
492.278, 25170.27
492.711, 25614.97
493.143, 26157.97
493.576, 26347.56
494.009, 26361.6
494.441, 26902.26
494.874, 26717.36
495.306, 26899.92
495.738, 27080.14
496.171, 26867.16
496.603, 27459.31
497.035, 27194.83
497.467, 27604.42
497.9, 28231.69
498.332, 28065.51
498.764, 28645.96
499.196, 28833.21
499.628, 28830.87
500.06, 28887.04
500.491, 29305.99
500.923, 29376.21
501.355, 29741.33
501.787, 29804.53
502.218, 30272.64
502.65, 29926.24
503.081, 29989.43
503.513, 30457.54
503.944, 30305.4
504.376, 31026.29
504.807, 30651.8
505.238, 31115.23
505.67, 31115.23
506.101, 31370.35
506.532, 31323.54
506.963, 31538.87
507.394, 32065.49
507.825, 31817.39
508.256, 32334.65
508.687, 32147.4
509.118, 32456.36
509.549, 32446.99
509.979, 32374.44
510.41, 33083.62
510.841, 32971.27
511.271, 33069.58
511.702, 33289.59
512.132, 33055.53
512.563, 33771.74
512.993, 33275.54
513.424, 34190.69
513.854, 33523.64
514.284, 33954.3
514.714, 34321.76
515.145, 34424.75
515.575, 34296.02
516.005, 34899.87
516.435, 35705.02
516.865, 35485.01
517.295, 35761.19
517.724, 35300.11
518.154, 35531.82
518.584, 35873.54
519.014, 35580.97
519.443, 35672.25
519.873, 35515.44
520.303, 35908.65
520.732, 36219.94
521.161, 35730.76
521.591, 36255.04
522.02, 36648.25
522.45, 37242.75
522.879, 36711.45
523.308, 36746.56
523.737, 36886.99
524.166, 37107
524.595, 37085.93
525.024, 36952.52
525.453, 37338.71
525.882, 38209.39
526.311, 37884.06
526.74, 37107
527.169, 37437.02
527.597, 37715.54
528.026, 38314.72
528.455, 38080.66
528.883, 37509.57
529.312, 37923.85
529.74, 38090.02
530.168, 38225.78
530.597, 38164.92
531.025, 38717.29
531.453, 38925.6
531.882, 39002.83
532.31, 38714.95
532.738, 38956.02
533.166, 39335.19
533.594, 38967.73
534.022, 39243.91
534.45, 38941.98
534.878, 39398.38
535.305, 39194.76
535.733, 39798.62
536.161, 39426.47
536.588, 39798.62
537.016, 39419.45
537.444, 39625.42
537.871, 39946.07
538.299, 39719.04
538.726, 40208.21
539.153, 41488.48
539.581, 40706.74
540.008, 41022.72
540.435, 40524.18
540.862, 41018.03
541.289, 40959.52
541.716, 41280.17
542.143, 40484.39
542.57, 41352.73
542.997, 40814.41
543.424, 41654.66
543.851, 41816.16
544.277, 42284.26
544.704, 42642.37
545.131, 42326.39
545.557, 42012.76
545.984, 42176.6
546.41, 42195.32
546.837, 42731.31
547.263, 42946.64
547.69, 42593.22
548.116, 42801.52
548.542, 42127.45
548.968, 42625.98
549.394, 42050.21
549.82, 42686.84
550.246, 42661.09
550.672, 43573.9
551.098, 43321.12
551.524, 43398.36
551.95, 43885.19
552.376, 44051.37
552.802, 44531.18
553.227, 43740.08
553.653, 43576.24
554.078, 43655.82
554.504, 43992.86
554.929, 44381.38
555.355, 44154.35
555.78, 44194.14
556.206, 43948.39
556.631, 43878.17
557.056, 44049.03
557.481, 44320.53
557.906, 44236.27
558.331, 44723.1
558.756, 45160.78
559.181, 45722.51
559.606, 45034.39
560.031, 45259.09
560.456, 45249.72
560.881, 45488.46
561.305, 44922.05
561.73, 44961.84
562.155, 44690.34
562.579, 45153.76
563.004, 45436.97
563.428, 45762.3
563.853, 45635.91
564.277, 45720.17
564.701, 45366.75
565.126, 45977.63
565.55, 46120.4
565.974, 45631.23
566.398, 45865.28
566.822, 46321.69
567.246, 46747.67
567.67, 46169.55
568.094, 46579.15
568.518, 46747.67
568.941, 46967.68
569.365, 47241.52
569.789, 47419.4
570.213, 47335.14
570.636, 47704.95
571.06, 48489.02
571.483, 49111.61
571.907, 47969.43
572.33, 48900.96
572.753, 47859.42
573.177, 48196.46
573.6, 48414.13
574.023, 48414.13
574.446, 48355.61
574.869, 48592.01
575.292, 48217.52
575.715, 47798.57
576.138, 48130.92
576.561, 47941.34
576.984, 47662.82
577.407, 47672.18
577.829, 47255.56
578.252, 47604.3
578.675, 47211.09
579.097, 47491.96
579.52, 47056.62
579.942, 46735.96
580.364, 46415.31
580.787, 46326.37
581.209, 47398.34
581.631, 46450.42
582.054, 46672.77
582.476, 46504.25
582.898, 46207
583.32, 45825.5
583.742, 46235.09
584.164, 46356.8
584.586, 45954.22
585.008, 45855.92
585.429, 46078.27
585.851, 46305.3
586.273, 46211.68
586.694, 46497.23
587.116, 46621.28
587.538, 45876.99
587.959, 46616.6
588.38, 46218.71
588.802, 46567.44
589.223, 46654.04
589.644, 47349.18
590.066, 47124.49
590.487, 47009.81
590.908, 48081.77
591.329, 47873.46
591.75, 48102.84
592.171, 48051.34
592.592, 48627.12
593.013, 48470.3
593.434, 49025.01
593.854, 49355.02
594.275, 49432.26
594.696, 49692.06
595.116, 49788.02
595.537, 50073.57
595.957, 50431.67
596.378, 50586.14
596.798, 50403.58
597.218, 51147.87
597.639, 50906.8
598.059, 51068.3
598.479, 51730.67
598.899, 51021.48
599.319, 51360.86
599.739, 50991.06
600.159, 51658.11
600.579, 51515.34
600.999, 50890.41
601.419, 50927.86
601.839, 50902.12
602.259, 50281.88
602.678, 50747.64
603.098, 50623.59
603.517, 50422.31
603.937, 50712.53
604.356, 50211.66
604.776, 49357.36
605.195, 49259.06
605.614, 49074.16
606.034, 49017.99
606.453, 48486.68
606.872, 48573.28
607.291, 48070.07
607.71, 48807.34
608.129, 47576.22
608.548, 47665.16
608.967, 47864.1
609.386, 47601.96
609.805, 47063.64
610.223, 46967.68
610.642, 46984.06
611.061, 46895.12
611.479, 47133.85
611.898, 47248.54
612.316, 47154.92
612.735, 46927.89
613.153, 46574.47
613.571, 46347.43
613.99, 46363.82
614.408, 46686.81
614.826, 46024.44
615.244, 45521.23
615.662, 45893.37
616.08, 45509.52
616.498, 45404.2
616.916, 45750.6
617.334, 45181.85
617.752, 45352.71
618.169, 45839.54
618.587, 45469.73
619.005, 44982.9
619.422, 45170.15
619.84, 44512.45
620.257, 45008.65
620.675, 44870.56
621.092, 45095.25
621.509, 44641.18
621.927, 44390.75
622.344, 44568.63
622.761, 44308.83
623.178, 44332.23
623.595, 43688.59
624.012, 43580.92
624.429, 43435.81
624.846, 44070.09
625.263, 43697.95
625.68, 43796.25
626.097, 44247.97
626.513, 43726.03
626.93, 43974.13
627.346, 43861.79
627.763, 44070.09
628.179, 44217.55
628.596, 43562.2
629.012, 43906.26
629.429, 43943.7
629.845, 44194.14
630.261, 43896.89
630.677, 43648.8
631.093, 43550.49
631.509, 43700.29
631.925, 43627.73
632.341, 43639.43
632.757, 43389
633.173, 43536.45
633.589, 43489.64
634.005, 43058.98
634.42, 43468.58
634.836, 43749.44
635.252, 42827.27
635.667, 42677.47
636.083, 42686.84
636.498, 42960.68
636.913, 42946.64
637.329, 42649.39
637.744, 42864.72
638.159, 42607.26
638.574, 42487.89
638.99, 42953.66
639.405, 42171.92
639.82, 42635.34
640.235, 43007.49
640.65, 42537.04
641.064, 42080.64
641.479, 42195.32
641.894, 42445.76
642.309, 42464.49
642.723, 41984.68
643.138, 41261.45
643.552, 41247.41
643.967, 41247.41
644.381, 42001.06
644.796, 41259.11
645.21, 42101.7
645.624, 41827.86
646.038, 42394.27
646.453, 42331.08
646.867, 41930.84
647.281, 41640.62
647.695, 41326.99
648.109, 41661.68
648.523, 42120.43
648.936, 41706.15
649.35, 41673.38
649.764, 41179.53
650.178, 41392.52
650.591, 41345.71
651.005, 41715.51
651.418, 41750.62
651.832, 41277.83
652.245, 41146.76
652.659, 41619.55
653.072, 41603.17
653.485, 41385.5
653.898, 40774.62
654.312, 40409.5
654.725, 41212.3
655.138, 41387.84
655.551, 41689.77
655.964, 40758.24
656.377, 40519.5
656.789, 40793.34
657.202, 40521.84
657.615, 41326.99
658.028, 40716.11
658.44, 40189.49
658.853, 40163.74
659.265, 40182.46
659.678, 40224.59
660.09, 40105.23
660.503, 39641.8
660.915, 39599.67
661.327, 39033.26
661.739, 39541.16
662.152, 39360.94
662.564, 40219.91
662.976, 39669.89
663.388, 39704.99
663.8, 39199.44
664.211, 38965.38
664.623, 39047.3
665.035, 39227.52
665.447, 38696.22
665.858, 38560.47
666.27, 38377.91
666.682, 38626.01
667.093, 38841.34
667.505, 38431.74
667.916, 38204.71
668.327, 38090.02
668.739, 37820.86
669.15, 38602.6
669.561, 38429.4
669.972, 38429.4
670.383, 38609.62
670.794, 38406
671.205, 37701.5
671.616, 37277.86
672.027, 37348.07
672.438, 37071.89
672.849, 37312.97
673.259, 37231.05
673.67, 37507.23
674.08, 37275.52
674.491, 36753.58
674.901, 37069.55
675.312, 36285.47
675.722, 36372.07
676.133, 36554.63
676.543, 35864.18
676.953, 36432.93
677.363, 36322.92
677.773, 35728.42
678.183, 36081.84
678.593, 35059.03
679.003, 35674.59
679.413, 35995.25
679.823, 35754.17
680.233, 35213.51
680.643, 35307.13
681.052, 35328.19
681.462, 34867.11
681.872, 35274.36
682.281, 34817.96
682.691, 34714.97
683.1, 34466.88
683.509, 34026.85
683.919, 33827.91
684.328, 33767.06
684.737, 34118.14
685.146, 33764.71
685.555, 33736.63
685.964, 33423
686.373, 33607.9
686.782, 33188.94
687.191, 33132.77
687.6, 32809.78
688.009, 32685.73
688.417, 32489.12
688.826, 32292.52
689.235, 31927.39
689.643, 31990.59
690.052, 31550.57
690.46, 32116.98
690.869, 32056.12
691.277, 32496.14
691.685, 31585.68
692.093, 31267.36
692.502, 31447.58
692.91, 31510.78
693.318, 31454.61
693.726, 31674.62
694.134, 31637.17
694.542, 31360.98
694.949, 31370.35
695.357, 30827.34
695.765, 30876.49
696.173, 30534.78
696.58, 31370.35
696.988, 30911.6
697.395, 30892.88
697.803, 31019.27
698.21, 30956.07
698.618, 30967.77
699.025, 30462.22
699.432, 31318.85
699.839, 30347.53
700.247, 31030.97
700.654, 30218.8
701.061, 30223.48
701.468, 30282
701.875, 30216.46
702.281, 30179.01
702.688, 30331.15
703.095, 30071.35
703.502, 30422.43
703.908, 30183.69
704.315, 30061.99
704.722, 29783.46
705.128, 30256.25
705.534, 29636.01
705.941, 29483.87
706.347, 29544.73
706.753, 29809.21
707.16, 28777.03
707.566, 29355.15
707.972, 29256.84
708.378, 29474.51
708.784, 29469.83
709.19, 28674.05
709.596, 28919.81
710.002, 28781.71
710.407, 28643.62
710.813, 28468.08
711.219, 28940.87
711.625, 28777.03
712.03, 28217.64
712.436, 28484.47
712.841, 28210.62
713.246, 28428.29
713.652, 28248.07
714.057, 28369.78
714.462, 27927.42
714.868, 28109.98
715.273, 27922.74
715.678, 27403.14
716.083, 27936.78
716.488, 27559.95
716.893, 27267.39
717.297, 27337.6
717.702, 27269.73
718.107, 27452.29
718.512, 27119.93
718.916, 27084.83
719.321, 26605.02
719.725, 27152.7
720.13, 26733.75
720.534, 26848.43
720.939, 26796.94
721.343, 26459.9
721.747, 26326.49
722.151, 26579.27
722.556, 26656.51
722.96, 26331.17
723.364, 26963.12
723.768, 26225.85
724.172, 26047.97
724.576, 25778.81
724.979, 25961.37
725.383, 25996.48
725.787, 25961.37
726.19, 26172.02
726.594, 25806.89
726.998, 26300.75
727.401, 25748.38
727.805, 26019.88
728.208, 25643.06
728.611, 25671.14
729.014, 25624.33
729.418, 25722.63
729.821, 25657.1
730.224, 25364.53
730.627, 25411.34
731.03, 25650.08
731.433, 25797.53
731.836, 25380.92
732.239, 25582.2
732.641, 25142.18
733.044, 24952.6
733.447, 25193.67
733.849, 25275.59
734.252, 25090.69
734.654, 25399.64
735.057, 24791.1
735.459, 24535.98
735.862, 24414.27
736.264, 24699.82
736.666, 24231.71
737.068, 24376.83
737.47, 24498.53
737.872, 24751.31
738.274, 24706.84
738.676, 24397.89
739.078, 24404.91
739.48, 23978.93
739.882, 23843.18
740.284, 23632.54
740.685, 23852.55
741.087, 23627.85
741.488, 23522.53
741.89, 23187.83
742.291, 23105.91
742.693, 23581.04
743.094, 23094.21
743.495, 23428.91
743.897, 23314.22
744.298, 23454.65
744.699, 23501.47
745.1, 23393.8
745.501, 23611.47
745.902, 23194.86
746.303, 23199.54
746.704, 23508.49
747.105, 23276.77
747.505, 23220.6
747.906, 23176.13
748.307, 22869.52
748.707, 22799.3
749.108, 23040.38
749.508, 22759.52
749.908, 23129.32
750.309, 22827.39
750.709, 22904.63
751.109, 22649.51
751.51, 22738.45
751.91, 22455.25
752.31, 22637.81
752.71, 22881.22
753.11, 22937.4
753.51, 23332.95
753.909, 22431.84
754.309, 22429.5
754.709, 22331.2
755.109, 22340.56
755.508, 22024.59
755.908, 21806.92
756.307, 22392.05
756.707, 22169.7
757.106, 21411.37
757.505, 21575.2
757.905, 21898.2
758.304, 21713.3
758.703, 21497.97
759.102, 21006.45
759.501, 21055.61
759.9, 21039.22
760.299, 20709.21
760.698, 20966.67
761.097, 21034.54
761.496, 20496.22
761.895, 20278.55
762.293, 20248.12
762.692, 20217.69
763.09, 20355.79
763.489, 20273.87
763.887, 20032.79
764.286, 19836.19
764.684, 19234.67
765.082, 19033.38
765.481, 18668.26
765.879, 18796.99
766.277, 18534.85
766.675, 18541.87
767.073, 18141.64
767.471, 17809.28
767.869, 18108.87
768.267, 17767.15
768.664, 18008.23
769.062, 18062.06
769.46, 18228.24
769.857, 17554.16
770.255, 17448.84
770.653, 17151.59
771.05, 17072.01
771.447, 17191.38
771.845, 17008.82
772.242, 16821.58
772.639, 16933.92
773.036, 16655.4
773.433, 16875.41
773.831, 16264.53
774.228, 16844.98
774.624, 16362.83
775.021, 15993.03
775.418, 16056.22
775.815, 16369.85
776.212, 16140.48
776.608, 16348.79
777.005, 15817.49
777.401, 16021.11
777.798, 15826.85
778.194, 15787.06
778.591, 15691.1
778.987, 15953.24
779.383, 15265.12
779.78, 15307.25
780.176, 15765.99
780.572, 15384.49
780.968, 15333
781.364, 15222.99
781.76, 14710.41
782.156, 14808.72
782.551, 14492.74
782.947, 14574.66
783.343, 14658.92
783.739, 14422.53
784.134, 14761.91
784.53, 14855.53
784.925, 14668.28
785.321, 14452.95
785.716, 14553.6
786.111, 14312.52
786.507, 14298.48
786.902, 14420.19
787.297, 14246.99
787.692, 14277.41
788.087, 14251.67
788.482, 14216.56
788.877, 14113.58
789.272, 13774.2
789.667, 14270.39
790.061, 13767.18
790.456, 13664.19
790.851, 13748.45
791.245, 13945.06
791.64, 13781.22
792.034, 13476.95
792.429, 13275.66
792.823, 13402.05
793.217, 13196.09
793.612, 13104.81
794.006, 13177.36
794.4, 12749.04
794.794, 12606.27
795.188, 12994.8
795.582, 12397.96
795.976, 12428.39
796.37, 12496.27
796.763, 12419.03
797.157, 12299.66
797.551, 12376.9
797.944, 12184.98
798.338, 12407.33
798.731, 12765.43
799.125, 12379.24
799.518, 12519.67
799.912, 12184.98
800.305, 12096.03
800.698, 12128.8
801.091, 12348.81
801.484, 12320.73
801.877, 12419.03
802.27, 12472.86
802.663, 12362.86
803.056, 12309.02
803.449, 11869
803.842, 11974.33
804.235, 11562.39
804.627, 11810.49
805.02, 11995.39
805.412, 11611.54
805.805, 11663.04
806.197, 11602.18
806.59, 11744.95
806.982, 11712.19
807.374, 11777.72
807.766, 11920.49
808.159, 11557.71
808.551, 11492.18
808.943, 11522.6
809.335, 11199.61
809.727, 10916.4
810.118, 11173.86
810.51, 11267.49
810.902, 11400.9
811.294, 11440.68
811.685, 11138.76
812.077, 11244.08
812.468, 11019.39
812.86, 11031.09
813.251, 11194.93
813.643, 10914.06
814.034, 11054.5
814.425, 11073.22
814.816, 10696.39
815.207, 10366.38
815.598, 10675.33
815.989, 10651.92
816.38, 10581.71
816.771, 10775.97
817.162, 10691.71
817.553, 10541.92
817.944, 10460
818.334, 10410.85
818.725, 10211.9
819.115, 10282.12
819.506, 10310.21
819.896, 10167.43
820.287, 10296.16
820.677, 10244.67
821.067, 10218.93
821.457, 10158.07
821.848, 10104.24
822.238, 10151.05
822.628, 9933.38
823.018, 10144.03
823.408, 9902.95
823.797, 9661.88
824.187, 9764.86
824.577, 9668.9
824.967, 9825.72
825.356, 9940.4
825.746, 9926.36
826.135, 9603.36
826.525, 9565.92
826.914, 9385.69
827.304, 9495.7
827.693, 9498.04
828.082, 9678.26
828.471, 9757.84
828.86, 9877.21
829.249, 9657.2
829.638, 9437.19
830.027, 9289.73
830.416, 9245.26
830.805, 9261.65
831.194, 9479.32
831.582, 9355.27
831.971, 9315.48
832.36, 9198.45
832.748, 8978.44
833.137, 9067.38
833.525, 9062.7
833.914, 9036.95
834.302, 8940.99
834.69, 8835.67
835.078, 8608.64
835.466, 8728
835.854, 8660.13
836.243, 8601.62
836.63, 8582.89
837.018, 8271.6
837.406, 8388.63
837.794, 8358.2
838.182, 8554.8
838.569, 8433.1
838.957, 8355.86
839.345, 8208.41
839.732, 8222.45
840.12, 8128.83
840.507, 8283.3
840.894, 8168.62
841.282, 8330.11
841.669, 8126.49
842.056, 7967.33
842.443, 8255.22
842.83, 8210.75
843.217, 8390.97
843.604, 8306.71
843.991, 8124.15
844.378, 7857.32
844.764, 7918.18
845.151, 7808.17
845.538, 7658.38
845.924, 7773.07
846.311, 7775.41
846.697, 7768.38
847.084, 8082.02
847.47, 7693.49
847.856, 7634.97
848.242, 7630.29
848.629, 7529.65
849.015, 7691.15
849.401, 7670.08
849.787, 7546.03
850.173, 7426.67
850.559, 7311.98
850.944, 7138.78
851.33, 7091.97
851.716, 7056.86
852.102, 7031.12
852.487, 7230.06
852.873, 6960.9
853.258, 6974.94
853.644, 7042.82
854.029, 6897.71
854.414, 6974.94
854.799, 6815.79
855.185, 6771.32
855.57, 6651.95
855.955, 6729.19
856.34, 6588.75
856.725, 6766.64
857.11, 6450.66
857.495, 6605.14
857.879, 6794.72
858.264, 6551.31
858.649, 6584.07
859.033, 6513.86
859.418, 6572.37
859.802, 6443.64
860.187, 6406.19
860.571, 6347.68
860.955, 6247.04
861.34, 6682.38
861.724, 6464.71
862.108, 6483.43
862.492, 6279.8
862.876, 6249.38
863.26, 6130.01
863.644, 6151.07
864.028, 6029.37
864.412, 6041.07
864.795, 6104.26
865.179, 6130.01
865.563, 5956.81
865.946, 5849.15
866.33, 5734.46
866.713, 5881.91
867.097, 5666.58
867.48, 5846.8
867.863, 5619.77
868.246, 5622.11
868.629, 5608.07
869.013, 5547.22
869.396, 5406.78
869.779, 5439.55
870.161, 5561.26
870.544, 5516.79
870.927, 5079.11
871.31, 5416.15
871.693, 5212.52
872.075, 5245.29
872.458, 5374.02
872.84, 5308.48
873.223, 5135.28
873.605, 5123.58
873.987, 5266.35
874.37, 5011.23
874.752, 4781.86
875.134, 4788.88
875.516, 4896.55
875.898, 4901.23
876.28, 4901.23
876.662, 4992.51
877.044, 5027.62
877.426, 5058.04
877.807, 4863.78
878.189, 4798.24
878.571, 4812.29
878.952, 4758.46
879.334, 4728.03
879.715, 4849.74
880.097, 4831.01
880.478, 4786.54
880.859, 4784.2
881.24, 4711.64
881.622, 4767.82
882.003, 4941.02
882.384, 4999.53
882.765, 5161.03
883.146, 5046.34
883.526, 5144.64
883.907, 5212.52
884.288, 5231.24
884.669, 5406.78
885.049, 5231.24
885.43, 5111.88
885.81, 5413.81
886.191, 5310.82
886.571, 5280.39
886.952, 5577.64
887.332, 5441.89
887.712, 5345.93
888.092, 5500.41
888.472, 5540.19
888.852, 5521.47
889.232, 5743.82
889.612, 5736.8
889.992, 5650.2
890.372, 5722.76
890.752, 5699.35
891.131, 5734.46
891.511, 5572.96
891.89, 5523.81
892.27, 5673.6
892.649, 5778.93
893.029, 5453.59
893.408, 5434.87
893.787, 5441.89
894.167, 5301.46
894.546, 5055.7
894.925, 5107.2
895.304, 5196.14
895.683, 5069.75
896.062, 5022.94
896.441, 5062.73
896.819, 4877.82
897.198, 4983.15
897.577, 4788.88
897.955, 4835.69
898.334, 4650.79
898.712, 4655.47
899.091, 4639.09
899.469, 4592.28
899.848, 4648.45
900.226, 4496.32
900.604, 4241.2
900.982, 4339.5
901.36, 4213.11
901.738, 4072.68
902.116, 4077.36
902.494, 4093.74
902.872, 4119.49
903.25, 3962.67
903.628, 3986.08
904.005, 3979.06
904.383, 3890.12
904.76, 3925.22
905.138, 3791.81
905.515, 3943.95
905.893, 3845.65
906.27, 3857.35
906.647, 3829.26
907.024, 3728.62
907.402, 3656.06
907.779, 3574.14
908.156, 3681.81
908.533, 3550.74
908.91, 3604.57
909.286, 3431.37
909.663, 3499.25
910.04, 3562.44
910.417, 3618.61
910.793, 3377.54
911.17, 3534.36
911.546, 3372.86
911.923, 3351.79
912.299, 3440.73
912.675, 3307.32
913.051, 3248.81
913.428, 3216.04
913.804, 3251.15
914.18, 3202
914.556, 3113.06
914.932, 3180.93
915.308, 3136.46
915.683, 3099.02
916.059, 3185.62
916.435, 3075.61
916.811, 2998.37
917.186, 2904.75
917.562, 2960.92
917.937, 2883.69
918.313, 3005.39
918.688, 3047.52
919.063, 3019.44
919.438, 2869.64
919.814, 2829.85
920.189, 2745.59
920.564, 2841.56
920.939, 2953.9
921.314, 2944.54
921.689, 2888.37
922.063, 2916.45
922.438, 2841.56
922.813, 2869.64
923.187, 2864.96
923.562, 2710.49
923.936, 2761.98
924.311, 2790.06
924.685, 2658.99
925.06, 2647.29
925.434, 2644.95
925.808, 2661.34
926.182, 2628.57
926.556, 2506.86
926.93, 2492.82
927.304, 2499.84
927.678, 2434.3
928.052, 2399.2
928.426, 2511.54
928.8, 2504.52
929.173, 2333.66
929.547, 2343.02
929.92, 2410.9
930.294, 2364.09
930.667, 2336
931.041, 2354.73
931.414, 2275.15
931.787, 2401.54
932.161, 2350.04
932.534, 2289.19
932.907, 2340.68
933.28, 2202.59
933.653, 2153.44
934.026, 2197.91
934.398, 2139.4
934.771, 2048.12
935.144, 2120.67
935.517, 2071.52
935.889, 1931.09
936.262, 2036.41
936.634, 2076.2
937.007, 2059.82
937.379, 1830.45
937.751, 1774.27
938.123, 1998.96
938.496, 1800.02
938.868, 1734.48
939.24, 1727.46
939.612, 1741.5
939.984, 1643.2
940.355, 1582.35
940.727, 1610.43
941.099, 1629.16
941.471, 1636.18
941.842, 1535.54
942.214, 1416.17
942.585, 1331.91
942.957, 1360
943.328, 1374.04
943.7, 1303.82
944.071, 1282.76
944.442, 1371.7
944.813, 1404.47
945.184, 1374.04
945.555, 1409.15
945.926, 1392.77
946.297, 1385.74
946.668, 1257.01
947.039, 1238.29
947.409, 1315.53
947.78, 1355.32
948.151, 1266.38
948.521, 1273.4
948.892, 1259.35
949.262, 1357.66
949.633, 1294.46
950.003, 1315.53
950.373, 1308.51
950.743, 1348.29
951.113, 1336.59
951.483, 1329.57
951.853, 1249.99
952.223, 1271.06
952.593, 1299.14
952.963, 1336.59
953.333, 1313.19
953.702, 1315.53
954.072, 1191.48
954.442, 1303.82
954.811, 1228.93
955.181, 1292.12
955.55, 1357.66
955.919, 1329.57
956.289, 1324.89
956.658, 1254.67
957.027, 1252.33
957.396, 1299.14
957.765, 1280.42
958.134, 1362.34
958.503, 1341.27
958.872, 1299.14
959.24, 1242.97
959.609, 1425.53
959.978, 1348.29
960.346, 1315.53
960.715, 1228.93
961.083, 1402.13
961.452, 1254.67
961.82, 1392.77
962.188, 1320.21
962.557, 1324.89
962.925, 1397.45
963.293, 1289.78
963.661, 1280.42
964.029, 1289.78
964.397, 1320.21
964.765, 1212.54
965.133, 1322.55
965.5, 1411.49
965.868, 1303.82
966.236, 1271.06
966.603, 1264.04
966.971, 1278.08
967.338, 1280.42
967.706, 1231.27
968.073, 1322.55
968.44, 1186.8
968.807, 1193.82
969.174, 1200.84
969.542, 1207.86
969.909, 1226.59
970.275, 1200.84
970.642, 1217.22
971.009, 1282.76
971.376, 1116.58
971.743, 1139.99
972.109, 1170.41
972.476, 1247.65
972.842, 1158.71
973.209, 1217.22
973.575, 1238.29
973.942, 1247.65
974.308, 1207.86
974.674, 1219.57
975.04, 1154.03
975.406, 1165.73
975.772, 1104.88
976.138, 1125.94
976.504, 1100.2
976.87, 1175.1
977.236, 1128.28
977.602, 1060.41
977.967, 1067.43
978.333, 1165.73
978.698, 1100.2
979.064, 1090.84
979.429, 1081.47
979.795, 1013.6
980.16, 1015.94
980.525, 1044.03
980.89, 1025.3
981.255, 1025.3
981.621, 941.04
981.986, 1048.71
982.35, 1006.58
982.715, 1053.39
983.08, 1006.58
983.445, 1076.79
983.81, 1065.09
984.174, 1044.03
984.539, 1006.58
984.903, 983.17
985.268, 1013.6
985.632, 1004.24
985.996, 983.17
986.361, 1006.58
986.725, 891.89
987.089, 889.55
987.453, 959.77
987.817, 966.79
988.181, 875.51
988.545, 866.14
988.909, 798.27
989.272, 903.59
989.636, 847.42
990, 880.19
990.363, 912.96
990.727, 809.97
991.09, 898.91
991.454, 908.27
991.817, 934.02
992.18, 875.51
992.543, 824.01
992.907, 863.8
993.27, 807.63
993.633, 863.8
993.996, 847.42
994.359, 826.36
994.721, 819.33
995.084, 838.06
995.447, 819.33
995.81, 753.8
996.172, 824.01
996.535, 809.97
996.897, 838.06
997.259, 716.35
997.622, 781.89
997.984, 784.23
998.346, 791.25
998.708, 828.7
999.071, 772.52
999.433, 805.29
999.795, 802.95
1000.156, 824.01
1000.518, 706.99
1000.88, 739.76
1001.242, 779.54
1001.603, 765.5
1001.965, 742.1
1002.327, 744.44
1002.688, 760.82
1003.049, 781.89
1003.411, 685.92
1003.772, 706.99
1004.133, 749.12
1004.495, 678.9
1004.856, 678.9
1005.217, 655.5
1005.578, 650.82
1005.939, 671.88
1006.299, 688.26
1006.66, 678.9
1007.021, 606.35
1007.382, 646.13
1007.742, 699.97
1008.103, 571.24
1008.463, 618.05
1008.824, 685.92
1009.184, 634.43
1009.544, 606.35
1009.904, 690.6
1010.265, 657.84
1010.625, 655.5
1010.985, 685.92
1011.345, 648.47
1011.705, 573.58
1012.065, 571.24
1012.424, 592.3
1012.784, 632.09
1013.144, 585.28
1013.503, 622.73
1013.863, 559.53
1014.222, 683.58
1014.582, 632.09
1014.941, 613.37
1015.3, 627.41
1015.66, 615.71
1016.019, 545.49
1016.378, 604
1016.737, 543.15
1017.096, 536.13
1017.455, 545.49
1017.814, 533.79
1018.173, 599.32
1018.531, 498.68
1018.89, 589.96
1019.249, 501.02
1019.607, 596.98
1019.966, 568.9
1020.324, 594.64
1020.682, 517.4
1021.041, 543.15
1021.399, 526.77
1021.757, 494
1022.115, 571.24
1022.473, 575.92
1022.831, 465.91
1023.189, 529.11
1023.547, 503.36
1023.905, 536.13
1024.263, 477.62
1024.62, 470.59
1024.978, 491.66
1025.335, 433.15
1025.693, 482.3
1026.05, 540.81
1026.408, 472.93
1026.765, 594.64
1027.122, 477.62
1027.479, 486.98
1027.837, 526.77
1028.194, 501.02
1028.551, 515.06
1028.908, 442.51
1029.264, 517.4
1029.621, 515.06
1029.978, 547.83
1030.335, 554.85
1030.691, 444.85
1031.048, 496.34
1031.404, 512.72
1031.761, 440.17
1032.117, 477.62
1032.473, 430.8
1032.83, 526.77
1033.186, 503.36
1033.542, 451.87
1033.898, 550.17
1034.254, 526.77
1034.61, 526.77
1034.966, 526.77
